File: stats_and_tables/grouped_by_composition.csv
Alloy composition,FORMULA,IDENTIFIER: Reference ID,REFERENCE: doi,PROPERTY: Processing method,PROPERTY: Microstructure,PROPERTY: O content (wppm),PROPERTY: N content (wppm),PROPERTY: C content (wppm),PROPERTY: grain size ($\mu$m),PROPERTY: ROM Density (g/cm$^3$),PROPERTY: Exp. Density (g/cm$^3$),PROPERTY: HV,PROPERTY: Type of test,PROPERTY: Test temperature ($^\circ$C),PROPERTY: YS (MPa),PROPERTY: UTS (MPa),PROPERTY: Elongation (%),PROPERTY: Elongation plastic (%),PROPERTY: Young modulus (GPa),REFERENCE: year
Ag1 Al1 Nb1 Ti1 Zn1,,,,,,,,,,,,,,,,,,,,
,Ag1 Al1 Nb1 Ti1 Zn1,122,10.1016/j.msea.2018.12.020,ANNEAL,,,,,,,4.75,,,,,,,,,2018
,Ag1 Al1 Nb1 Ti1 Zn1,122,10.1016/j.msea.2018.12.020,ANNEAL,,,,,,,5.78,,,,,,,,,2018
,Ag1 Al1 Nb1 Ti1 Zn1,122,10.1016/j.msea.2018.12.020,ANNEAL,,,,,,,5.79,,,,,,,,,2018
,Ag1 Al1 Nb1 Ti1 Zn1,122,10.1016/j.msea.2018.12.020,ANNEAL,,,,,,,5.51,,,,,,,,,2018
,Ag1 Al1 Nb1 Ti1 Zn1,122,10.1016/j.msea.2018.12.020,ANNEAL,,,,,,,,,,,,,,,,2018
Al0.05 Cr0.5 Fe1 Mn0.625 Ni0.375,,,,,,,,,,,,,,,,,,,,
,Al0.05 Cr0.5 Fe1 Mn0.625 Ni0.375,149,10.1016/j.jallcom.2018.08.093,CAST,,,,,,,,,C,25.0,354.0,,,,,2018
,Al0.05 Cr0.5 Fe1 Mn0.625 Ni0.375,149,10.1016/j.jallcom.2018.08.093,CAST,,,,,,,,,C,400.0,260.0,,,,,2018
,Al0.05 Cr0.5 Fe1 Mn0.625 Ni0.375,149,10.1016/j.jallcom.2018.08.093,CAST,,,,,,,,,C,600.0,155.0,,,,,2018
Al0.053 Cu1 Mn1 Ni1,,,,,,,,,,,,,,,,,,,,
,Al0.053 Cu1 Mn1 Ni1,62,10.1016/j.jallcom.2015.07.285,CAST,FCC,,,,,8.3,,166.0,C,25.0,330.0,,45.0,,174.0,2015
Al0.1 Co1 Cr1 Fe1 Mn1 Ni1,,,,,,,,,,,,,,,,,,,,
,Al0.1 Co1 Cr1 Fe1 Mn1 Ni1,16,10.1016/j.actamat.2013.09.037,CAST,FCC,,,,,7.9,,180.0,,25.0,,,,,216.0,2013
,Al0.1 Co1 Cr1 Fe1 Mn1 Ni1,135,10.1016/j.jallcom.2018.10.168,CAST,,,,,,,,432.0,C,25.0,1631.0,,,12.6,,2018
Al0.1 Co1 Cr1 Fe1 Ni1,,,,,,,,,,,,,,,,,,,,
,Al0.1 Co1 Cr1 Fe1 Ni1,179,10.1016/j.actamat.2018.12.012,WROUGHT,FCC,,,,20.0,,,,T,25.0,1198.0,,1.5,,,2018
,Al0.1 Co1 Cr1 Fe1 Ni1,179,10.1016/j.actamat.2018.12.012,WROUGHT,FCC,,,,20.0,,,,T,25.0,1403.0,,1.2,,,2018
,Al0.1 Co1 Cr1 Fe1 Ni1,179,10.1016/j.actamat.2018.12.012,WROUGHT,FCC,,,,20.0,,,,T,25.0,711.0,928.0,30.3,,,2018
,Al0.1 Co1 Cr1 Fe1 Ni1,179,10.1016/j.actamat.2018.12.012,WROUGHT,FCC,,,,7.0,,,,T,25.0,356.0,,42.4,,,2018
Al0.1 Cr0.5 Cu0.5 Fe0.5 Ni1,,,,,,,,,,,,,,,,,,,,
,Al0.1 Cr0.5 Cu0.5 Fe0.5 Ni1,33,10.1063/1.35872,,FCC,,,,,8.0,,,,25.0,,,,,199.0,2011
Al0.108 Co0.514 Cr0.514 Cu0.108 Fe0.514 Ni1,,,,,,,,,,,,,,,,,,,,
,Al0.108 Co0.514 Cr0.514 Cu0.108 Fe0.514 Ni1,159,10.1016/j.matchar.2018.06.036,WROUGHT,,,,,,,,,T,25.0,719.0,1048.0,30.0,,,2018
,Al0.108 Co0.514 Cr0.514 Cu0.108 Fe0.514 Ni1,159,10.1016/j.matchar.2018.06.036,WROUGHT,FCC,,,,,,,,T,25.0,460.0,732.0,32.0,,,2018
,Al0.108 Co0.514 Cr0.514 Cu0.108 Fe0.514 Ni1,159,10.1016/j.matchar.2018.06.036,WROUGHT,FCC,,,,,,,,T,25.0,719.0,1048.0,30.0,,,2018
,Al0.108 Co0.514 Cr0.514 Cu0.108 Fe0.514 Ni1,159,10.1016/j.matchar.2018.06.036,WROUGHT,,,,,,,,,T,25.0,460.0,732.0,32.0,,,2018
Al0.111 Cu1 Mn1 Ni1,,,,,,,,,,,,,,,,,,,,
,Al0.111 Cu1 Mn1 Ni1,62,10.1016/j.jallcom.2015.07.285,CAST,FCC+Sec.,,,,,8.1,,241.0,C,25.0,515.0,,40.0,,,2015
Al0.125 Co1 Cr1 Cu1 Fe1 Mn1 Ni1 Ti1 V1,,,,,,,,,,,,,,,,,,,,
,Al0.125 Co1 Cr1 Cu1 Fe1 Mn1 Ni1 Ti1 V1,61,10.1016/j.msea.2006.11.049,CAST,FCC+BCC,,,,,6.7,,,C,25.0,1862.0,2431.0,1.0,,164.0,2006
Al0.133 Co1 Cr0.667 Fe0.667 Ni1 Ti0.333,,,,,,,,,,,,,,,,,,,,
,Al0.133 Co1 Cr0.667 Fe0.667 Ni1 Ti0.333,1,10.1016/j.actamat.2011.06.041,ANNEAL,FCC,,,,,7.6,,487.0,,25.0,,,,,206.0,2011
Al0.133 Co1 Cr0.667 Fe0.667 Ni1 Ti0.667,,,,,,,,,,,,,,,,,,,,
,Al0.133 Co1 Cr0.667 Fe0.667 Ni1 Ti0.667,1,10.1016/j.actamat.2011.06.041,ANNEAL,FCC+Sec.,,,,,7.2,,717.0,,25.0,,,,,,2011
Al0.143 Cr0.343 Fe1 Mn0.8 Ni0.571,,,,,,,,,,,,,,,,,,,,
,Al0.143 Cr0.343 Fe1 Mn0.8 Ni0.571,208,10.1016/j.msea.2019.05.056,CAST,FCC,,,,,,,,T,25.0,280.0,556.0,48.0,48.2,,2019
,Al0.143 Cr0.343 Fe1 Mn0.8 Ni0.571,208,10.1016/j.msea.2019.05.056,CAST,FCC,,,,,,,,T,25.0,1253.0,1392.0,6.78,8.2,,2019
Al0.15 Cr0.5 Cu0.25 Fe0.5 Ni1,,,,,,,,,,,,,,,,,,,,
,Al0.15 Cr0.5 Cu0.25 Fe0.5 Ni1,187,10.1016/j.matchar.2019.109792,WROUGHT,FCC,,,,,,,107.0,T,62.0,169.0,,98.0,,16.6,2019
,Al0.15 Cr0.5 Cu0.25 Fe0.5 Ni1,187,10.1016/j.matchar.2019.109792,WROUGHT,,,,,,,,209.0,T,350.0,642.0,,73.0,,47.0,2019
,Al0.15 Cr0.5 Cu0.25 Fe0.5 Ni1,187,10.1016/j.matchar.2019.109792,WROUGHT,,,,,,,,321.0,T,535.0,904.0,,39.0,,35.2,2019
,Al0.15 Cr0.5 Cu0.25 Fe0.5 Ni1,187,10.1016/j.matchar.2019.109792,WROUGHT,,,,,,,,159.0,T,255.0,584.0,,88.0,,51.4,2019
Al0.15 Cr0.5 Fe1 Mn0.625 Ni0.375,,,,,,,,,,,,,,,,,,,,
,Al0.15 Cr0.5 Fe1 Mn0.625 Ni0.375,149,10.1016/j.jallcom.2018.08.093,CAST,,,,,,,,,C,25.0,550.0,,,,,2018
,Al0.15 Cr0.5 Fe1 Mn0.625 Ni0.375,149,10.1016/j.jallcom.2018.08.093,CAST,,,,,,,,,C,400.0,469.0,,,,,2018
,Al0.15 Cr0.5 Fe1 Mn0.625 Ni0.375,149,10.1016/j.jallcom.2018.08.093,CAST,,,,,,,,,C,600.0,272.0,,,,,2018
Al0.167 Co1 Cr1 Fe1 Ni1 Ti0.083,,,,,,,,,,,,,,,,,,,,
,Al0.167 Co1 Cr1 Fe1 Ni1 Ti0.083,159,10.1016/j.matchar.2018.06.036,ANNEAL,FCC,,,,289.7,,,,T,25.0,210.0,503.0,70.0,,,2018
,Al0.167 Co1 Cr1 Fe1 Ni1 Ti0.083,159,10.1016/j.matchar.2018.06.036,WROUGHT,,,,,15.7,,,,T,25.0,645.0,1094.0,39.0,,,2018
,Al0.167 Co1 Cr1 Fe1 Ni1 Ti0.083,159,10.1016/j.matchar.2018.06.036,WROUGHT,,,,,2.8,,,,T,25.0,1005.0,1273.0,17.0,,,2018
Al0.186 Cr0.149 Fe1 Mn0.861 Ni0.28,,,,,,,,,,,,,,,,,,,,
,Al0.186 Cr0.149 Fe1 Mn0.861 Ni0.28,113,10.1016/j.msea.2019.01.083,CAST,,,,,,,,,T,25.0,159.0,535.0,,40.8,,2019
,Al0.186 Cr0.149 Fe1 Mn0.861 Ni0.28,113,10.1016/j.msea.2019.01.083,ANNEAL,,,,,,,,,T,25.0,409.0,584.0,,10.5,,2019
,Al0.186 Cr0.149 Fe1 Mn0.861 Ni0.28,113,10.1016/j.msea.2019.01.083,CAST,,,,,,,,,T,25.0,355.0,1174.0,,49.5,,2019
,Al0.186 Cr0.149 Fe1 Mn0.861 Ni0.28,113,10.1016/j.msea.2019.01.083,ANNEAL,,,,,,,,,T,25.0,954.0,978.0,,2.0,,2019
Al0.2 Co1 Cr1 Fe1 Mn1 Ni1,,,,,,,,,,,,,,,,,,,,
,Al0.2 Co1 Cr1 Fe1 Mn1 Ni1,16,10.1016/j.actamat.2013.09.037,CAST,FCC,,,,,7.7,,171.0,T,25.0,220.0,,56.0,,214.0,2013
Al0.2 Cr0.5 Cu0.5 Fe0.5 Ni1,,,,,,,,,,,,,,,,,,,,
,Al0.2 Cr0.5 Cu0.5 Fe0.5 Ni1,33,10.1063/1.35872,,FCC,,,,,7.8,,,,25.0,,,,,194.0,2011
Al0.2 Cr0.667 Fe1 Mn0.667 Ni0.333,,,,,,,,,,,,,,,,,,,,
,Al0.2 Cr0.667 Fe1 Mn0.667 Ni0.333,18,10.1016/j.msea.2010.05.052,CAST,FCC+BCC,,,,,7.2,,297.0,,25.0,,,,,213.0,2010
Al0.2 Mo1 Ta1 Ti1 V1,,,,,,,,,,,,,,,,,,,,
,Al0.2 Mo1 Ta1 Ti1 V1,88,10.4028/www.scientific.net/MSF.898.638,CAST,BCC,,,,,9.2,,,C,25.0,1021.0,1249.0,,,184.0,2017
Al0.214 Nb0.714 Ta0.571 Ti1 V0.143 Zr0.929,,,,,,,,,,,,,,,,,,,,
,Al0.214 Nb0.714 Ta0.571 Ti1 V0.143 Zr0.929,39,10.1007/s11837-014-1066-0,OTHER,BCC,,,,180.0,7.7,,500.0,C,25.0,1965.0,2061.0,5.0,,110.0,2014
,Al0.214 Nb0.714 Ta0.571 Ti1 V0.143 Zr0.929,39,10.1007/s11837-014-1066-0,OTHER,BCC,,,,180.0,7.8,,,C,25.0,1965.0,2061.0,5.0,,,2014
,Al0.214 Nb0.714 Ta0.571 Ti1 V0.143 Zr0.929,39,10.1007/s11837-014-1066-0,OTHER,BCC,,,,180.0,7.8,,,C,800.0,678.0,693.0,50.0,,,2014
,Al0.214 Nb0.714 Ta0.571 Ti1 V0.143 Zr0.929,39,10.1007/s11837-014-1066-0,OTHER,BCC,,,,180.0,7.8,,,C,1000.0,166.0,189.0,50.0,,,2014
Al0.214 Nb0.714 Ta0.714 Ti1 Zr0.929,,,,,,,,,,,,,,,,,,,,
,Al0.214 Nb0.714 Ta0.714 Ti1 Zr0.929,39,10.1007/s11837-014-1066-0,OTHER,BCC,,,,200.0,8.1,,490.0,C,25.0,1965.0,2054.0,5.0,,113.0,2014
,Al0.214 Nb0.714 Ta0.714 Ti1 Zr0.929,39,10.1007/s11837-014-1066-0,OTHER,BCC,,,,200.0,8.2,,,C,25.0,1965.0,2054.0,5.0,,,2014
,Al0.214 Nb0.714 Ta0.714 Ti1 Zr0.929,39,10.1007/s11837-014-1066-0,OTHER,BCC,,,,200.0,8.2,,,C,800.0,362.0,397.0,50.0,,,2014
,Al0.214 Nb0.714 Ta0.714 Ti1 Zr0.929,39,10.1007/s11837-014-1066-0,OTHER,BCC,,,,200.0,8.2,,,C,1000.0,236.0,247.0,50.0,,,2014
Al0.229 Co0.486 Cr0.4 Cu0.229 Fe0.486 Mo0.003 Ni1 Ti0.029 W0.003,,,,,,,,,,,,,,,,,,,,
,Al0.229 Co0.486 Cr0.4 Cu0.229 Fe0.486 Mo0.003 Ni1 Ti0.029 W0.003,159,10.1016/j.matchar.2018.06.036,CAST,,,,,,,,231.0,,,,,,,,2018
,Al0.229 Co0.486 Cr0.4 Cu0.229 Fe0.486 Mo0.003 Ni1 Ti0.029 W0.003,159,10.1016/j.matchar.2018.06.036,ANNEAL,,,,,,,,178.0,,,,,,,,2018
,Al0.229 Co0.486 Cr0.4 Cu0.229 Fe0.486 Mo0.003 Ni1 Ti0.029 W0.003,159,10.1016/j.matchar.2018.06.036,ANNEAL,,,,,,,,343.0,,,,,,,,2018
,Al0.229 Co0.486 Cr0.4 Cu0.229 Fe0.486 Mo0.003 Ni1 Ti0.029 W0.003,159,10.1016/j.matchar.2018.06.036,ANNEAL,,,,,,,,171.0,,,,,,,,2018
Al0.24 Nb1 Ti1 V1 Zr1,,,,,,,,,,,,,,,,,,,,
,Al0.24 Nb1 Ti1 V1 Zr1,157,10.1016/j.actamat.2019.06.032,OTHER,,,,,,,6.34,,C,23.0,1240.0,,,,,2019
,Al0.24 Nb1 Ti1 V1 Zr1,157,10.1016/j.actamat.2019.06.032,OTHER,,,,,,,6.34,,C,1000.0,82.0,,,,,2019
,Al0.24 Nb1 Ti1 V1 Zr1,157,10.1016/j.actamat.2019.06.032,OTHER,,,,,,,6.34,,C,1200.0,24.0,,,,,2019
Al0.242 Co0.515 Cr0.515 Cu0.242 Fe0.515 Ni1,,,,,,,,,,,,,,,,,,,,
,Al0.242 Co0.515 Cr0.515 Cu0.242 Fe0.515 Ni1,159,10.1016/j.matchar.2018.06.036,CAST,,,,,,,,280.0,T,25.0,357.0,459.0,9.0,,,2018
,Al0.242 Co0.515 Cr0.515 Cu0.242 Fe0.515 Ni1,159,10.1016/j.matchar.2018.06.036,ANNEAL,,,,,,,,168.0,,,,,,,,2018
,Al0.242 Co0.515 Cr0.515 Cu0.242 Fe0.515 Ni1,159,10.1016/j.matchar.2018.06.036,ANNEAL,,,,,,,,328.0,,,,,,,,2018
,Al0.242 Co0.515 Cr0.515 Cu0.242 Fe0.515 Ni1,159,10.1016/j.matchar.2018.06.036,ANNEAL,,,,,,,,206.0,,,,,,,,2018
,Al0.242 Co0.515 Cr0.515 Cu0.242 Fe0.515 Ni1,159,10.1016/j.matchar.2018.06.036,ANNEAL,,,,,,,,,T,25.0,215.0,489.0,39.0,,,2018
,Al0.242 Co0.515 Cr0.515 Cu0.242 Fe0.515 Ni1,159,10.1016/j.matchar.2018.06.036,CAST,,,,,,,,,T,25.0,357.0,459.0,9.0,,,2018
,Al0.242 Co0.515 Cr0.515 Cu0.242 Fe0.515 Ni1,159,10.1016/j.matchar.2018.06.036,ANNEAL,,,,,,,,,T,25.0,365.0,365.0,0.1,,,2018
,Al0.242 Co0.515 Cr0.515 Cu0.242 Fe0.515 Ni1,159,10.1016/j.matchar.2018.06.036,ANNEAL,,,,,,,,,T,25.0,215.0,489.0,39.0,,,2018
Al0.25 Co0.5 Cr0.5 Cu0.5 Fe0.5 Ni0.5 Ti1,,,,,,,,,,,,,,,,,,,,
,Al0.25 Co0.5 Cr0.5 Cu0.5 Fe0.5 Ni0.5 Ti1,24,10.2320/matertrans.47.1395,CAST,FCC+BCC+Sec.,,,,,6.5,,696.0,,25.0,,,,,,2006
Al0.25 Co0.5 Cr0.5 Cu0.5 Fe0.5 Ni0.5 V1,,,,,,,,,,,,,,,,,,,,
,Al0.25 Co0.5 Cr0.5 Cu0.5 Fe0.5 Ni0.5 V1,25,10.1007/s11661-006-0081-3,CAST,BCC,,,,,7.2,,587.0,,25.0,,,,,176.0,2006
,Al0.25 Co0.5 Cr0.5 Cu0.5 Fe0.5 Ni0.5 V1,208,10.1016/j.msea.2019.05.056,,,,,,,,,550.0,,,,,,,,2019
Al0.25 Co1 Cr1 Cu0.5 Fe1 Ni1 Ti0.5,,,,,,,,,,,,,,,,,,,,
,Al0.25 Co1 Cr1 Cu0.5 Fe1 Ni1 Ti0.5,13,10.1016/j.jallcom.2008.11.059,CAST,FCC,,,,,7.4,,,,25.0,,,,,198.0,2008
Al0.25 Co1 Cr1 Cu0.75 Fe1 Ni1 Ti0.5,,,,,,,,,,,,,,,,,,,,
,Al0.25 Co1 Cr1 Cu0.75 Fe1 Ni1 Ti0.5,13,10.1016/j.jallcom.2008.11.059,CAST,FCC,,,,,7.5,,,C,25.0,750.0,1970.0,,39.0,103.0,2008
Al0.25 Co1 Cr1 Cu1 Fe1 Mn1 Ni1 Ti1 V1,,,,,,,,,,,,,,,,,,,,
,Al0.25 Co1 Cr1 Cu1 Fe1 Mn1 Ni1 Ti1 V1,61,10.1016/j.msea.2006.11.049,CAST,BCC,,,,,6.1,,,C,25.0,1465.0,2016.0,2.0,,190.0,2006
Al0.25 Co1 Cr1 Fe1 Ni1,,,,,,,,,,,,,,,,,,,,
,Al0.25 Co1 Cr1 Fe1 Ni1,54,10.1016/j.jallcom.2009.08.090,ANNEAL,FCC,,,,,7.7,,110.0,,25.0,,,,,216.0,2009
,Al0.25 Co1 Cr1 Fe1 Ni1,54,10.1016/j.jallcom.2009.08.090,ANNEAL,FCC,,,,,7.7,,113.0,,25.0,,,,,216.0,2009
Al0.25 Co1 Fe1 Ni1,,,,,,,,,,,,,,,,,,,,
,Al0.25 Co1 Fe1 Ni1,27,10.1016/j.jmmm.2014.07.023,CAST,FCC,,,,,7.9,,138.0,C,25.0,158.0,,,,196.0,2014
Al0.25 Cr0.417 Fe0.417 Ni1,,,,,,,,,,,,,,,,,,,,
,Al0.25 Cr0.417 Fe0.417 Ni1,199,10.1016/j.jallcom.2018.08.176,CAST,FCC,,,,,,,,T,25.0,441.0,757.0,45.0,,,2018
Al0.25 Cr0.5 Fe1 Mn0.625 Ni0.375,,,,,,,,,,,,,,,,,,,,
,Al0.25 Cr0.5 Fe1 Mn0.625 Ni0.375,149,10.1016/j.jallcom.2018.08.093,CAST,,,,,175.0,,,,C,25.0,994.0,,,,,2018
,Al0.25 Cr0.5 Fe1 Mn0.625 Ni0.375,149,10.1016/j.jallcom.2018.08.093,CAST,,,,,175.0,,,,C,400.0,943.0,,,,,2018
,Al0.25 Cr0.5 Fe1 Mn0.625 Ni0.375,149,10.1016/j.jallcom.2018.08.093,CAST,,,,,175.0,,,,C,600.0,359.0,,,,,2018
Al0.25 Cr0.5 Nb0.5 Ti1 V0.25,,,,,,,,,,,,,,,,,,,,
,Al0.25 Cr0.5 Nb0.5 Ti1 V0.25,98,10.1016/j.matlet.2016.11.030,ANNEAL,BCC+Laves,,,,,5.8,,,C,600.0,930.0,,,,,2016
,Al0.25 Cr0.5 Nb0.5 Ti1 V0.25,98,10.1016/j.matlet.2016.11.030,ANNEAL,BCC+Laves,,,,,5.8,,,C,800.0,445.0,,,,143.0,2016
,Al0.25 Cr0.5 Nb0.5 Ti1 V0.25,98,10.1016/j.matlet.2016.11.030,ANNEAL,BCC+Laves,,,,,5.8,,,C,1000.0,90.0,,,,,2016
,Al0.25 Cr0.5 Nb0.5 Ti1 V0.25,98,10.1016/j.matlet.2016.11.030,ANNEAL,BCC+Laves,,,,,5.8,,,C,25.0,1340.0,1700.0,,,,2016
,Al0.25 Cr0.5 Nb0.5 Ti1 V0.25,98,10.1016/j.matlet.2016.11.030,CAST,BCC,,,,,5.8,,,C,25.0,1240.0,,,,,2016
Al0.25 Mo1 Nb1 Ti1 V1,,,,,,,,,,,,,,,,,,,,
,Al0.25 Mo1 Nb1 Ti1 V1,41,10.3390/e16020870,CAST,BCC,,,,,7.1,,460.0,C,25.0,1250.0,1500.0,13.0,,164.0,2014
Al0.25 Nb1 Ta1 Ti1 V1,,,,,,,,,,,,,,,,,,,,
,Al0.25 Nb1 Ta1 Ti1 V1,42,10.1016/j.proeng.2012.03.043,CAST,BCC,,,,,8.8,,,C,25.0,1330.0,,,,92.0,2012
Al0.25 Nb1 Ta1 Ti1 Zr1,,,,,,,,,,,,,,,,,,,,
,Al0.25 Nb1 Ta1 Ti1 Zr1,78,10.1016/j.matdes.2017.11.033,OTHER,BCC+B2,,,,,8.6,,,C,1000.0,366.0,408.0,,,,2017
,Al0.25 Nb1 Ta1 Ti1 Zr1,78,10.1016/j.matdes.2017.11.033,OTHER,BCC+B2,,,,,8.6,,,C,25.0,1745.0,1830.0,,,,2017
Al0.267 Co1 Cr0.667 Fe0.667 Ni0.667 Ti0.2,,,,,,,,,,,,,,,,,,,,
,Al0.267 Co1 Cr0.667 Fe0.667 Ni0.667 Ti0.2,131,10.5755/j01.ms.25.3.19452,POWDER,,,,,,,,515.0,C,25.0,2012.0,,,17.52,,2019
Al0.278 Co0.556 Cr0.556 Cu0.556 Fe0.556 Ni0.556 Ti1,,,,,,,,,,,,,,,,,,,,
,Al0.278 Co0.556 Cr0.556 Cu0.556 Fe0.556 Ni0.556 Ti1,24,10.2320/matertrans.47.1395,CAST,FCC+BCC+Sec.,,,,,6.6,,667.0,,25.0,,,,,,2006
Al0.278 Co0.556 Cr0.556 Cu0.556 Fe0.556 Ni0.556 V1,,,,,,,,,,,,,,,,,,,,
,Al0.278 Co0.556 Cr0.556 Cu0.556 Fe0.556 Ni0.556 V1,25,10.1007/s11661-006-0081-3,CAST,BCC,,,,,7.2,,597.0,,25.0,,,,,177.0,2006
Al0.278 Co0.694 Cr0.222 Fe0.417 Ni1 Ti0.167,,,,,,,,,,,,,,,,,,,,
,Al0.278 Co0.694 Cr0.222 Fe0.417 Ni1 Ti0.167,159,10.1016/j.matchar.2018.06.036,CAST,,,,,,,,343.0,,,,,,,,2018
,Al0.278 Co0.694 Cr0.222 Fe0.417 Ni1 Ti0.167,159,10.1016/j.matchar.2018.06.036,ANNEAL,,,,,,,,341.0,,,,,,,,2018
,Al0.278 Co0.694 Cr0.222 Fe0.417 Ni1 Ti0.167,159,10.1016/j.matchar.2018.06.036,ANNEAL,,,,,,,,345.0,T,25.0,568.0,786.0,12.0,,,2018
,Al0.278 Co0.694 Cr0.222 Fe0.417 Ni1 Ti0.167,159,10.1016/j.matchar.2018.06.036,ANNEAL,,,,,,,,345.0,T,25.0,596.0,1039.0,20.0,,,2018
,Al0.278 Co0.694 Cr0.222 Fe0.417 Ni1 Ti0.167,159,10.1016/j.matchar.2018.06.036,ANNEAL,,,,,0.37,,,345.0,T,700.0,487.0,702.0,18.0,,,2018
,Al0.278 Co0.694 Cr0.222 Fe0.417 Ni1 Ti0.167,159,10.1016/j.matchar.2018.06.036,ANNEAL,,,,,0.32,,,345.0,T,700.0,486.0,624.0,11.0,,,2018
,Al0.278 Co0.694 Cr0.222 Fe0.417 Ni1 Ti0.167,177,10.3390/e21020169,ANNEAL,FCC,,,,,,,,T,23.0,520.0,696.0,49.0,,,2019
,Al0.278 Co0.694 Cr0.222 Fe0.417 Ni1 Ti0.167,177,10.3390/e21020169,ANNEAL,FCC,,,,,,,,T,600.0,470.0,561.0,11.0,,,2019
,Al0.278 Co0.694 Cr0.222 Fe0.417 Ni1 Ti0.167,177,10.3390/e21020169,ANNEAL,FCC,,,,,,,,T,700.0,461.0,560.0,9.0,,,2019
,Al0.278 Co0.694 Cr0.222 Fe0.417 Ni1 Ti0.167,177,10.3390/e21020169,ANNEAL,FCC,,,,,,,,T,800.0,445.0,536.0,6.0,,,2019
,Al0.278 Co0.694 Cr0.222 Fe0.417 Ni1 Ti0.167,177,10.3390/e21020169,ANNEAL,FCC,,,,,,,,T,900.0,219.0,312.0,8.0,,,2019
,Al0.278 Co0.694 Cr0.222 Fe0.417 Ni1 Ti0.167,177,10.3390/e21020169,ANNEAL,FCC,,,,,,,,T,23.0,627.0,1197.0,27.0,,,2019
,Al0.278 Co0.694 Cr0.222 Fe0.417 Ni1 Ti0.167,177,10.3390/e21020169,ANNEAL,FCC,,,,,,,,T,600.0,594.0,1006.0,12.0,,,2019
,Al0.278 Co0.694 Cr0.222 Fe0.417 Ni1 Ti0.167,177,10.3390/e21020169,ANNEAL,FCC,,,,,,,,T,700.0,547.0,840.0,17.0,,,2019
,Al0.278 Co0.694 Cr0.222 Fe0.417 Ni1 Ti0.167,177,10.3390/e21020169,ANNEAL,FCC,,,,,,,,T,800.0,399.0,575.0,20.0,,,2019
,Al0.278 Co0.694 Cr0.222 Fe0.417 Ni1 Ti0.167,177,10.3390/e21020169,ANNEAL,FCC,,,,,,,,T,900.0,243.0,319.0,34.0,,,2019
Al0.286 Cr0.343 Fe1 Mn0.657 Ni0.571,,,,,,,,,,,,,,,,,,,,
,Al0.286 Cr0.343 Fe1 Mn0.657 Ni0.571,208,10.1016/j.msea.2019.05.056,WROUGHT,FCC,,,,,,,,T,25.0,320.0,625.0,42.2,42.45,,2019
,Al0.286 Cr0.343 Fe1 Mn0.657 Ni0.571,208,10.1016/j.msea.2019.05.056,WROUGHT,FCC,,,,,,,,T,25.0,1400.0,1500.0,5.83,7.85,,2019
Al0.3 Co1 Cr1 Cu1 Fe1,,,,,,,,,,,,,,,,,,,,
,Al0.3 Co1 Cr1 Cu1 Fe1,20,10.3166/acsm.31.633-648,,FCC,,,,,7.7,,180.0,,25.0,,,,,194.0,2019
Al0.3 Co1 Cr1 Fe1 Mn1 Ni1,,,,,,,,,,,,,,,,,,,,
,Al0.3 Co1 Cr1 Fe1 Mn1 Ni1,135,10.1016/j.jallcom.2018.10.168,CAST,,,,,0.2,,,511.0,C,25.0,1836.0,,,4.9,,2018
,Al0.3 Co1 Cr1 Fe1 Mn1 Ni1,108,10.1016/j.scriptamat.2018.12.021,POWDER,,,,,,,,,,,,,,,,2018
Al0.3 Co1 Cr1 Fe1 Mo0.1 Ni1,,,,,,,,,,,,,,,,,,,,
,Al0.3 Co1 Cr1 Fe1 Mo0.1 Ni1,208,10.1016/j.msea.2019.05.056,,FCC,,,,,,,200.0,,,,,,,,2019
Al0.3 Co1 Cr1 Fe1 Ni1,,,,,,,,,,,,,,,,,,,,
,Al0.3 Co1 Cr1 Fe1 Ni1,139,10.1016/j.scriptamat.2018.08.048,WROUGHT,,,,,0.71,,,,T,25.0,900.0,1074.0,25.0,,,2018
,Al0.3 Co1 Cr1 Fe1 Ni1,137,10.1016/j.matdes.2019.107698,CAST,FCC,,,,,,,117.0,,,,,,,,2019
,Al0.3 Co1 Cr1 Fe1 Ni1,140,10.1016/j.scriptamat.2018.10.023,WROUGHT,,,,,,,,,T,25.0,143.0,400.0,65.0,,,2018
,Al0.3 Co1 Cr1 Fe1 Ni1,140,10.1016/j.scriptamat.2018.10.023,WROUGHT,,,,,,,,,T,25.0,471.0,850.0,45.0,,,2018
,Al0.3 Co1 Cr1 Fe1 Ni1,140,10.1016/j.scriptamat.2018.10.023,WROUGHT,,,,,,,,,T,25.0,841.0,1050.0,35.0,,,2018
,Al0.3 Co1 Cr1 Fe1 Ni1,140,10.1016/j.scriptamat.2018.10.023,WROUGHT,,,,,,,,,T,25.0,161.0,1650.0,7.0,,,2018
,Al0.3 Co1 Cr1 Fe1 Ni1,140,10.1016/j.scriptamat.2018.10.023,WROUGHT,,,,,,,,,T,25.0,187.0,1850.0,5.0,,,2018
,Al0.3 Co1 Cr1 Fe1 Ni1,150,10.1016/j.actamat.2018.12.010,WROUGHT,,,,,,,,,T,25.0,840.0,1039.0,32.0,,,2018
,Al0.3 Co1 Cr1 Fe1 Ni1,150,10.1016/j.actamat.2018.12.010,WROUGHT,FCC,,,,,,,,T,25.0,159.0,410.0,65.0,,,2018
,Al0.3 Co1 Cr1 Fe1 Ni1,169,10.1088/2053-1591/ab0597,CAST,FCC,,,,,,,132.0,C,300.0,,,,,,2019
,Al0.3 Co1 Cr1 Fe1 Ni1,169,10.1088/2053-1591/ab0597,CAST,FCC,,,,,,,147.0,C,340.0,,,,,,2019
,Al0.3 Co1 Cr1 Fe1 Ni1,169,10.1088/2053-1591/ab0597,CAST,FCC,,,,,,,165.0,C,430.0,,,,,,2019
,Al0.3 Co1 Cr1 Fe1 Ni1,208,10.1016/j.msea.2019.05.056,,FCC,,,,,,,160.0,,,,,,,,2019
Al0.3 Cr0.5 Cu0.5 Fe0.5 Ni1,,,,,,,,,,,,,,,,,,,,
[...]
,Mo1 Nb1 Ta1 W1,191,10.1016/j.msea.2019.138140,ANNEAL,BCC,,,,,,,815.0,,,,,,,,2019
,Mo1 Nb1 Ta1 W1,191,10.1016/j.msea.2019.138140,ANNEAL,,,,,,,,700.0,,,,,,,,2019
,Mo1 Nb1 Ta1 W1,205,10.1007/s10853-019-03567-9,POWDER,BCC,,,,,,,504.5,C,25.0,1217.0,,7.5,3.8,,2019
,Mo1 Nb1 Ta1 W1,205,10.1007/s10853-019-03567-9,POWDER,BCC,,,,,,,420.0,,200.0,,,,,,2019
,Mo1 Nb1 Ta1 W1,205,10.1007/s10853-019-03567-9,POWDER,BCC,,,,,,,425.0,,400.0,,,,,,2019
,Mo1 Nb1 Ta1 W1,205,10.1007/s10853-019-03567-9,POWDER,BCC,,,,,,,340.0,,600.0,,,,,,2019
,Mo1 Nb1 Ta1 W1,205,10.1007/s10853-019-03567-9,POWDER,BCC,,,,,,,335.5,,800.0,,,,,,2019
Mo1 Nb1 Ti1,,,,,,,,,,,,,,,,,,,,
,Mo1 Nb1 Ti1,157,10.1016/j.actamat.2019.06.032,OTHER,BCC,,,,,,7.67,,C,23.0,1100.0,,,,,2019
,Mo1 Nb1 Ti1,157,10.1016/j.actamat.2019.06.032,OTHER,BCC,,,,,,7.67,,C,1000.0,504.0,,,,,2019
,Mo1 Nb1 Ti1,157,10.1016/j.actamat.2019.06.032,OTHER,BCC,,,,,,7.67,,C,1200.0,324.0,,,,,2019
Mo1 Nb1 Ti1 V0.25 Zr1,,,,,,,,,,,,,,,,,,,,
,Mo1 Nb1 Ti1 V0.25 Zr1,59,10.1007/s11837-012-0366-5,CAST,BCC,,,,,7.3,,,C,25.0,1776.0,3893.0,30.0,,153.0,2012
Mo1 Nb1 Ti1 V0.3 Zr1,,,,,,,,,,,,,,,,,,,,
,Mo1 Nb1 Ti1 V0.3 Zr1,58,10.1016/j.matdes.2015.06.072,ANNEAL,BCC,,,,,7.3,,,C,25.0,1455.0,,,25.0,,2015
Mo1 Nb1 Ti1 V0.5 Zr1,,,,,,,,,,,,,,,,,,,,
,Mo1 Nb1 Ti1 V0.5 Zr1,59,10.1007/s11837-012-0366-5,CAST,BCC,,,,,7.2,,,C,25.0,1647.0,3307.0,28.0,,152.0,2012
Mo1 Nb1 Ti1 V0.75 Zr1,,,,,,,,,,,,,,,,,,,,
,Mo1 Nb1 Ti1 V0.75 Zr1,59,10.1007/s11837-012-0366-5,CAST,BCC,,,,,7.2,,,C,25.0,1708.0,3929.0,29.0,,150.0,2012
Mo1 Nb1 Ti1 V1,,,,,,,,,,,,,,,,,,,,
,Mo1 Nb1 Ti1 V1,41,10.3390/e16020870,CAST,BCC,,,,,7.3,,441.0,C,25.0,1200.0,2050.0,26.0,,170.0,2014
Mo1 Nb1 Ti1 V1 Zr1,,,,,,,,,,,,,,,,,,,,
,Mo1 Nb1 Ti1 V1 Zr1,58,10.1016/j.matdes.2015.06.072,ANNEAL,BCC,,,,,7.1,,,C,25.0,1779.0,,,32.0,,2015
,Mo1 Nb1 Ti1 V1 Zr1,59,10.1007/s11837-012-0366-5,CAST,BCC,,,,,7.1,,,C,25.0,1786.0,3828.0,26.0,,149.0,2012
,Mo1 Nb1 Ti1 V1 Zr1,157,10.1016/j.actamat.2019.06.032,OTHER,,,,,,,7.27,,C,23.0,1706.0,,,,,2019
,Mo1 Nb1 Ti1 V1 Zr1,157,10.1016/j.actamat.2019.06.032,OTHER,,,,,,,7.27,,C,1000.0,467.0,,,,,2019
,Mo1 Nb1 Ti1 V1 Zr1,157,10.1016/j.actamat.2019.06.032,OTHER,,,,,,,7.27,,C,1200.0,116.0,,,,,2019
Mo1 Nb1 Ti1 Zr1,,,,,,,,,,,,,,,,,,,,
,Mo1 Nb1 Ti1 Zr1,59,10.1007/s11837-012-0366-5,CAST,BCC,,,,,7.3,,,C,25.0,1592.0,3450.0,34.0,,155.0,2012
Mo1 Ta1 Ti1 V1,,,,,,,,,,,,,,,,,,,,
,Mo1 Ta1 Ti1 V1,88,10.4028/www.scientific.net/MSF.898.638,CAST,BCC,,,,,9.5,,,C,25.0,1221.0,1454.0,,,189.8,2017
Nb0.333 Ta0.667 Ti0.667 Zr1,,,,,,,,,,,,,,,,,,,,
,Nb0.333 Ta0.667 Ti0.667 Zr1,121,10.3390/e21020114,CAST,,,,,500.0,,,489.0,T,25.0,,843.0,0.0,,93.0,2019
Nb0.5 Ti0.5 V1 Zr0.5,,,,,,,,,,,,,,,,,,,,
,Nb0.5 Ti0.5 V1 Zr0.5,45,10.1016/j.msea.2012.12.018,OTHER,BCC,,,,550.0,6.4,,304.0,C,25.0,918.0,,50.0,,109.0,2012
,Nb0.5 Ti0.5 V1 Zr0.5,45,10.1016/j.msea.2012.12.018,OTHER,BCC,,,,,6.3,,,C,25.0,918.0,,50.0,,,2012
,Nb0.5 Ti0.5 V1 Zr0.5,45,10.1016/j.msea.2012.12.018,OTHER,BCC,,,,,6.3,,,C,600.0,571.0,,50.0,,,2012
,Nb0.5 Ti0.5 V1 Zr0.5,45,10.1016/j.msea.2012.12.018,OTHER,BCC,,,,,6.3,,,C,800.0,240.0,,50.0,,,2012
,Nb0.5 Ti0.5 V1 Zr0.5,45,10.1016/j.msea.2012.12.018,OTHER,BCC,,,,,6.3,,,C,1000.0,72.0,,50.0,,,2012
Nb1 Re0.3 Ti1 Zr1,,,,,,,,,,,,,,,,,,,,
,Nb1 Re0.3 Ti1 Zr1,157,10.1016/j.actamat.2019.06.032,OTHER,,,,,,,7.81,,C,23.0,1244.0,,,,,2019
,Nb1 Re0.3 Ti1 Zr1,157,10.1016/j.actamat.2019.06.032,OTHER,,,,,,,7.81,,C,1000.0,323.0,,,,,2019
,Nb1 Re0.3 Ti1 Zr1,157,10.1016/j.actamat.2019.06.032,OTHER,,,,,,,7.81,,C,1200.0,89.0,,,,,2019
Nb1 Ta0.3 Ti1 Zr1,,,,,,,,,,,,,,,,,,,,
,Nb1 Ta0.3 Ti1 Zr1,157,10.1016/j.actamat.2019.06.032,OTHER,BCC,,,,,,7.81,,C,23.0,882.0,,,,,2019
,Nb1 Ta0.3 Ti1 Zr1,157,10.1016/j.actamat.2019.06.032,OTHER,BCC,,,,,,7.81,,C,1000.0,274.0,,,,,2019
,Nb1 Ta0.3 Ti1 Zr1,157,10.1016/j.actamat.2019.06.032,OTHER,BCC,,,,,,7.81,,C,1200.0,102.0,,,,,2019
Nb1 Ta0.667 Ti0.667 Zr0.333,,,,,,,,,,,,,,,,,,,,
,Nb1 Ta0.667 Ti0.667 Zr0.333,121,10.3390/e21020114,CAST,,,,,500.0,,,294.0,T,25.0,822.0,852.0,0.33,,127.0,2019
Nb1 Ta1 Ti1,,,,,,,,,,,,,,,,,,,,
,Nb1 Ta1 Ti1,192,10.1016/j.actamat.2019.06.006,WROUGHT,BCC,100.0,5,,,,,,C,20.0,573.0,,,,,2019
,Nb1 Ta1 Ti1,192,10.1016/j.actamat.2019.06.006,WROUGHT,BCC,100.0,5,,,,,,C,100.0,486.0,,,,,2019
,Nb1 Ta1 Ti1,192,10.1016/j.actamat.2019.06.006,WROUGHT,BCC,100.0,5,,,,,,C,200.0,378.0,,,,,2019
,Nb1 Ta1 Ti1,192,10.1016/j.actamat.2019.06.006,WROUGHT,BCC,100.0,5,,,,,,C,300.0,314.0,,,,,2019
,Nb1 Ta1 Ti1,192,10.1016/j.actamat.2019.06.006,WROUGHT,BCC,100.0,5,,,,,,C,400.0,232.0,,,,,2019
,Nb1 Ta1 Ti1,192,10.1016/j.actamat.2019.06.006,WROUGHT,BCC,100.0,5,,,,,,C,600.0,222.0,,,,,2019
,Nb1 Ta1 Ti1,192,10.1016/j.actamat.2019.06.006,WROUGHT,BCC,100.0,5,,,,,,C,800.0,210.0,,,,,2019
,Nb1 Ta1 Ti1,192,10.1016/j.actamat.2019.06.006,WROUGHT,BCC,100.0,5,,,,,,C,1000.0,160.0,,,,,2019
,Nb1 Ta1 Ti1,121,10.3390/e21020114,CAST,BCC,,,,500.0,,,246.0,T,25.0,620.0,683.0,18.5,,143.0,2019
Nb1 Ta1 Ti1 V1,,,,,,,,,,,,,,,,,,,,
,Nb1 Ta1 Ti1 V1,42,10.1016/j.proeng.2012.03.043,CAST,BCC,,,,,9.2,,,C,25.0,1092.0,,,,106.0,2012
,Nb1 Ta1 Ti1 V1,97,10.1016/j.msea.2016.07.102,CAST,BCC,,,,,9.1,,,C,25.0,965.0,,,,133.8,2016
,Nb1 Ta1 Ti1 V1,127,10.1016/j.jallcom.2018.10.230,POWDER,BCC,,,,24.0,,,427.9,C,25.0,1108.0,,28.3,,,2018
,Nb1 Ta1 Ti1 V1,127,10.1016/j.jallcom.2018.10.230,POWDER,BCC,,,,30.0,,,444.3,C,25.0,1308.0,,27.9,,,2018
,Nb1 Ta1 Ti1 V1,127,10.1016/j.jallcom.2018.10.230,POWDER,BCC,4800.0,,1900.0,38.0,,,510.9,C,25.0,1373.0,,29.5,,,2018
Nb1 Ta1 Ti1 V1 W1,,,,,,,,,,,,,,,,,,,,
,Nb1 Ta1 Ti1 V1 W1,97,10.1016/j.msea.2016.07.102,CAST,BCC,,,,,11.0,,,C,25.0,1420.0,1800.0,20.0,,189.2,2016
Nb1 Ta1 Ti1 V1 Zr1,,,,,,,,,,,,,,,,,,,,
,Nb1 Ta1 Ti1 V1 Zr1,157,10.1016/j.actamat.2019.06.032,OTHER,,,,,,,8.43,,C,23.0,1395.0,,,,,2019
,Nb1 Ta1 Ti1 V1 Zr1,157,10.1016/j.actamat.2019.06.032,OTHER,,,,,,,8.43,,C,1000.0,190.0,,,,,2019
,Nb1 Ta1 Ti1 V1 Zr1,157,10.1016/j.actamat.2019.06.032,OTHER,,,,,,,8.43,,C,1200.0,78.0,,,,,2019
Nb1 Ta1 Ti1 W1,,,,,,,,,,,,,,,,,,,,
,Nb1 Ta1 Ti1 W1,192,10.1016/j.actamat.2019.06.006,ANNEAL,BCC,90.0,5,,,,,,C,20.0,1054.0,,,,,2019
,Nb1 Ta1 Ti1 W1,192,10.1016/j.actamat.2019.06.006,ANNEAL,BCC,90.0,5,,,,,,C,100.0,968.0,,,,,2019
,Nb1 Ta1 Ti1 W1,192,10.1016/j.actamat.2019.06.006,ANNEAL,BCC,90.0,5,,,,,,C,200.0,869.0,,,,,2019
,Nb1 Ta1 Ti1 W1,192,10.1016/j.actamat.2019.06.006,ANNEAL,BCC,90.0,5,,,,,,C,300.0,754.0,,,,,2019
,Nb1 Ta1 Ti1 W1,192,10.1016/j.actamat.2019.06.006,ANNEAL,BCC,90.0,5,,,,,,C,400.0,627.0,,,,,2019
,Nb1 Ta1 Ti1 W1,192,10.1016/j.actamat.2019.06.006,ANNEAL,BCC,90.0,5,,,,,,C,600.0,596.0,,,,,2019
,Nb1 Ta1 Ti1 W1,192,10.1016/j.actamat.2019.06.006,ANNEAL,BCC,90.0,5,,,,,,C,800.0,564.0,,,,,2019
,Nb1 Ta1 Ti1 W1,192,10.1016/j.actamat.2019.06.006,ANNEAL,BCC,90.0,5,,,,,,C,1000.0,459.0,,,,,2019
Nb1 Ta1 Ti1 Zr1,,,,,,,,,,,,,,,,,,,,
,Nb1 Ta1 Ti1 Zr1,121,10.3390/e21020114,CAST,BCC,,,,500.0,,,358.0,T,25.0,1144.0,1205.0,6.4,,98.0,2019
Nb1 Ta1 V1 W1,,,,,,,,,,,,,,,,,,,,
,Nb1 Ta1 V1 W1,97,10.1016/j.msea.2016.07.102,CAST,BCC,,,,,12.8,,,C,25.0,1530.0,1700.0,12.0,,207.5,2016
Nb1 Ti1 V0.3 Zr1,,,,,,,,,,,,,,,,,,,,
,Nb1 Ti1 V0.3 Zr1,58,10.1016/j.matdes.2015.06.072,ANNEAL,BCC,,,,,6.5,,,C,25.0,866.0,,,45.0,,2015
Nb1 Ti1 V1 Zr1,,,,,,,,,,,,,,,,,,,,
,Nb1 Ti1 V1 Zr1,45,10.1016/j.msea.2012.12.018,OTHER,BCC,,,,550.0,6.5,,335.0,C,25.0,1105.0,,50.0,,104.0,2012
,Nb1 Ti1 V1 Zr1,45,10.1016/j.msea.2012.12.018,OTHER,BCC,,,,,6.5,,,C,25.0,1105.0,,50.0,,,2012
,Nb1 Ti1 V1 Zr1,45,10.1016/j.msea.2012.12.018,OTHER,BCC,,,,,6.5,,,C,600.0,834.0,,50.0,,,2012
,Nb1 Ti1 V1 Zr1,45,10.1016/j.msea.2012.12.018,OTHER,BCC,,,,,6.5,,,C,800.0,187.0,,50.0,,,2012
,Nb1 Ti1 V1 Zr1,45,10.1016/j.msea.2012.12.018,OTHER,BCC,,,,,6.5,,,C,1000.0,58.0,,50.0,,,2012
,Nb1 Ti1 V1 Zr1,58,10.1016/j.matdes.2015.06.072,ANNEAL,BCC,,,,,6.5,,,C,25.0,1104.0,,,50.0,,2015
,Nb1 Ti1 V1 Zr1,133,10.1080/02670836.2018.1446267,,,,,,,,6.52,335.0,C,25.0,1105.0,,50.0,,,2018
Nb1 Ti1 Zr1,,,,,,,,,,,,,,,,,,,,
,Nb1 Ti1 Zr1,157,10.1016/j.actamat.2019.06.032,OTHER,BCC,,,,,,6.63,,C,23.0,975.0,,,,,2019
,Nb1 Ti1 Zr1,157,10.1016/j.actamat.2019.06.032,OTHER,BCC,,,,,,6.63,,C,1000.0,141.0,,,,,2019
,Nb1 Ti1 Zr1,157,10.1016/j.actamat.2019.06.032,OTHER,BCC,,,,,,6.63,,C,1200.0,61.0,,,,,2019
,Nb1 Ti1 Zr1,184,10.1007/s12598-019-01310-6,CAST,BCC,,,,,,,372.0,C,25.0,1223.0,,48.0,,,2019
,Nb1 Ti1 Zr1,184,10.1007/s12598-019-01310-6,ANNEAL,BCC,,,,300.0,,,,,,,,,,,2019
,Nb1 Ti1 Zr1,184,10.1007/s12598-019-01310-6,CAST,BCC,,,,,,,,C,1073.0,462.0,,51.0,,,2019
,Nb1 Ti1 Zr1,184,10.1007/s12598-019-01310-6,CAST,BCC,,,,,,,,C,1273.0,218.0,,51.0,,,2019
,Nb1 Ti1 Zr1,121,10.3390/e21020114,CAST,BCC,,,,500.0,,,295.0,T,25.0,956.0,991.0,14.2,,88.0,2019
Ta1 Ti1 Zr1,,,,,,,,,,,,,,,,,,,,
,Ta1 Ti1 Zr1,121,10.3390/e21020114,CAST,,,,,500.0,,,485.0,T,25.0,,284.0,0.0,,157.0,2019