File: stats_and_tables/MPEA_dataset_for_stats.csv
Unnamed: 0,REFERENCE: tag,REFERENCE: doi_x,FORMULA,PROPERTY: Type of phases,PROPERTY: Single/Multiphase,PROPERTY: synthesis method,PROPERTY: grain size ($\mu$m),PROPERTY: ROM Density (g/cm$^3$),PROPERTY: HV,PROPERTY: Type of test,PROPERTY: Test temperature ($^\circ$C),PROPERTY: YS (MPa),PROPERTY: UTS (MPa),PROPERTY: Elongation (%),PROPERTY: Elongation plastic (%),PROPERTY: ROM Young modulus (GPa),PROPERTY: Exp. Young modulus (GPa),PROPERTY: O content (wppm),PROPERTY: N content (wppm),PROPERTY: C content (wppm),REFERENCE: comment,Internal Reference #,Original DOI,PROPERTY: Exp. Density (g/cm$^3$),Unnamed: 22,IDENTIFIER: Reference ID,REFERENCE: title,REFERENCE: year,REFERENCE: doi_y,REFERENCE: url,REFERENCE: doi,PROPERTY: BCC/FCC/other,PROPERTY: Processing method,PROPERTY: Microstructure,PROPERTY: Calculated Density (g/cm$^3$),PROPERTY: Calculated Young modulus (GPa)
0,4,10.1016/j.jmmm.2014.07.023,Al0.25 Co1 Fe1 Ni1,FCC,S,AC,,7.9,138.0,C,25.0,158.0,,,,196.0,,,,,,,,,,27,Effects of Al and Si addition on the structure and properties of CoFeNi equal atomic ratio alloy,2014,10.1016/j.jmmm.2014.07.023,http://dx.doi.org/10.1016/j.jmmm.2014.07.023,10.1016/j.jmmm.2014.07.023,FCC,CAST,FCC,7.9,192
1,4,10.1016/j.jmmm.2014.07.023,Al0.5 Co1 Fe1 Ni1,FCC+BCC,M,AC,,7.4,212.0,C,25.0,346.0,,,,187.0,,,,,,,,,,27,Effects of Al and Si addition on the structure and properties of CoFeNi equal atomic ratio alloy,2014,10.1016/j.jmmm.2014.07.023,http://dx.doi.org/10.1016/j.jmmm.2014.07.023,10.1016/j.jmmm.2014.07.023,other,CAST,FCC+BCC,7.4,
2,4,10.1016/j.jmmm.2014.07.023,Al0.75 Co1 Fe1 Ni1,FCC+BCC,M,AC,,7.0,385.0,C,25.0,794.0,,,,179.0,,,,,,,,,,27,Effects of Al and Si addition on the structure and properties of CoFeNi equal atomic ratio alloy,2014,10.1016/j.jmmm.2014.07.023,http://dx.doi.org/10.1016/j.jmmm.2014.07.023,10.1016/j.jmmm.2014.07.023,other,CAST,FCC+BCC,7.0,
3,4,10.1016/j.jmmm.2014.07.023,Al1 Co1 Fe1 Ni1,BCC,S,AC,,6.6,456.0,C,25.0,964.0,,,,173.0,,,,,,,,,,27,Effects of Al and Si addition on the structure and properties of CoFeNi equal atomic ratio alloy,2014,10.1016/j.jmmm.2014.07.023,http://dx.doi.org/10.1016/j.jmmm.2014.07.023,10.1016/j.jmmm.2014.07.023,BCC,CAST,BCC,6.6,162
4,4,10.1016/j.jmmm.2014.07.023,Co1 Fe1 Ni1,FCC,S,AC,,8.5,125.0,C,25.0,204.0,,,,207.0,,,,,,,,,,27,Effects of Al and Si addition on the structure and properties of CoFeNi equal atomic ratio alloy,2014,10.1016/j.jmmm.2014.07.023,http://dx.doi.org/10.1016/j.jmmm.2014.07.023,10.1016/j.jmmm.2014.07.023,FCC,CAST,FCC,8.5,207
5,4,10.1016/j.jmmm.2014.07.023,Co1 Fe1 Ni1,FCC,S,AC,,8.5,125.0,C,25.0,209.0,,,,207.0,,,,,,,,,,27,Effects of Al and Si addition on the structure and properties of CoFeNi equal atomic ratio alloy,2014,10.1016/j.jmmm.2014.07.023,http://dx.doi.org/10.1016/j.jmmm.2014.07.023,10.1016/j.jmmm.2014.07.023,FCC,CAST,FCC,8.5,207
6,4,10.1016/j.jmmm.2014.07.023,Co1 Fe1 Ni1 Si0.25,FCC,S,AC,,7.7,149.0,C,25.0,196.0,,,,194.0,,,,,,,,,,27,Effects of Al and Si addition on the structure and properties of CoFeNi equal atomic ratio alloy,2014,10.1016/j.jmmm.2014.07.023,http://dx.doi.org/10.1016/j.jmmm.2014.07.023,10.1016/j.jmmm.2014.07.023,FCC,CAST,FCC,7.7,186
7,4,10.1016/j.jmmm.2014.07.023,Co1 Fe1 Ni1 Si0.5,FCC+Ni3Si,M,AC,,7.1,287.0,C,25.0,476.0,,,,,,,,,,,,,,27,Effects of Al and Si addition on the structure and properties of CoFeNi equal atomic ratio alloy,2014,10.1016/j.jmmm.2014.07.023,http://dx.doi.org/10.1016/j.jmmm.2014.07.023,10.1016/j.jmmm.2014.07.023,other,CAST,FCC+Sec.,7.1,
8,4,10.1016/j.jmmm.2014.07.023,Co1 Fe1 Ni1 Si0.75,FCC+Ni3Si,M,AC,,6.6,570.0,C,25.0,1301.0,,,,,,,,,,,,,,27,Effects of Al and Si addition on the structure and properties of CoFeNi equal atomic ratio alloy,2014,10.1016/j.jmmm.2014.07.023,http://dx.doi.org/10.1016/j.jmmm.2014.07.023,10.1016/j.jmmm.2014.07.023,other,CAST,FCC+Sec.,6.6,
9,5,10.1016/j.actamat.2014.08.026,Co1 Cr1 Fe1 Ni1,FCC,S,CR,24.0,8.2,,T,25.0,274.0,708.0,39.0,,225.0,,,,,elongation is total,,,,,37,Temperature dependence of the mechanical properties of equiatomic solid solution alloys with face-centered cubic crystal structures,2014,10.1016/j.actamat.2014.08.026,http://dx.doi.org/10.1016/j.actamat.2014.08.026,10.1016/j.actamat.2014.08.026,FCC,WROUGHT,FCC,8.2,226
10,5,10.1016/j.actamat.2014.08.026,Co1 Cr1 Mn1 Ni1,FCC,S,CR,36.0,8.1,,T,25.0,282.0,694.0,44.0,,222.0,,,,,elongation is total,,,,,37,Temperature dependence of the mechanical properties of equiatomic solid solution alloys with face-centered cubic crystal structures,2014,10.1016/j.actamat.2014.08.026,http://dx.doi.org/10.1016/j.actamat.2014.08.026,10.1016/j.actamat.2014.08.026,FCC,WROUGHT,FCC,8.1,222
11,5,10.1016/j.actamat.2014.08.026,Co1 Cr1 Ni1,FCC,S,CR,41.0,8.3,,T,25.0,300.0,860.0,60.0,,229.0,,,,,elongation is total,,,,,37,Temperature dependence of the mechanical properties of equiatomic solid solution alloys with face-centered cubic crystal structures,2014,10.1016/j.actamat.2014.08.026,http://dx.doi.org/10.1016/j.actamat.2014.08.026,10.1016/j.actamat.2014.08.026,FCC,WROUGHT,FCC,8.3,231
12,5,10.1016/j.actamat.2014.08.026,Co1 Fe1 Mn1 Ni1,FCC,S,CR,48.0,8.2,,T,25.0,170.0,550.0,41.0,,205.0,,,,,elongation is total,,,,,37,Temperature dependence of the mechanical properties of equiatomic solid solution alloys with face-centered cubic crystal structures,2014,10.1016/j.actamat.2014.08.026,http://dx.doi.org/10.1016/j.actamat.2014.08.026,10.1016/j.actamat.2014.08.026,FCC,WROUGHT,FCC,8.2,204
13,5,10.1016/j.actamat.2014.08.026,Co1 Fe1 Ni1,FCC,S,CR,28.0,8.5,,T,25.0,211.0,513.0,31.0,,207.0,,,,,elongation is total,,,,,37,Temperature dependence of the mechanical properties of equiatomic solid solution alloys with face-centered cubic crystal structures,2014,10.1016/j.actamat.2014.08.026,http://dx.doi.org/10.1016/j.actamat.2014.08.026,10.1016/j.actamat.2014.08.026,FCC,WROUGHT,FCC,8.5,207
14,5,10.1016/j.actamat.2014.08.026,Co1 Mn1 Ni1,FCC,S,CR,32.0,8.4,,T,25.0,231.0,653.0,38.0,,202.0,,,,,elongation is total,,,,,37,Temperature dependence of the mechanical properties of equiatomic solid solution alloys with face-centered cubic crystal structures,2014,10.1016/j.actamat.2014.08.026,http://dx.doi.org/10.1016/j.actamat.2014.08.026,10.1016/j.actamat.2014.08.026,FCC,WROUGHT,FCC,8.4,202
15,5,10.1016/j.actamat.2014.08.026,Fe1 Mn1 Ni1,FCC,S,CR,30.0,8.1,,T,25.0,221.0,602.0,36.0,,203.0,,,,,elongation is total,,,,,37,Temperature dependence of the mechanical properties of equiatomic solid solution alloys with face-centered cubic crystal structures,2014,10.1016/j.actamat.2014.08.026,http://dx.doi.org/10.1016/j.actamat.2014.08.026,10.1016/j.actamat.2014.08.026,FCC,WROUGHT,FCC,8.1,203
16,6,10.1016/j.intermet.2015.01.004,Co1 Cr1 Fe1 Nb0.103 Ni1,FCC+Laves (C14),M,AC,175.0,8.2,,T,25.0,318.0,622.0,19.0,,,,,,,all YS recorded as +1 MPa,,,,,46,Effects of Nb additions on the microstructure and mechanical property of CoCrFeNi high-entropy alloys,2015,10.1016/j.intermet.2015.01.004,http://dx.doi.org/10.1016/j.intermet.2015.01.004,10.1016/j.intermet.2015.01.004,other,CAST,FCC+Sec.,8.2,
17,6,10.1016/j.intermet.2015.01.004,Co1 Cr1 Fe1 Nb0.155 Ni1,FCC+Laves (C14),M,AC,175.0,8.2,,T,25.0,322.0,744.0,23.0,,,,,,,all YS recorded as +1 MPa,,,,,46,Effects of Nb additions on the microstructure and mechanical property of CoCrFeNi high-entropy alloys,2015,10.1016/j.intermet.2015.01.004,http://dx.doi.org/10.1016/j.intermet.2015.01.004,10.1016/j.intermet.2015.01.004,other,CAST,FCC+Sec.,8.2,
18,6,10.1016/j.intermet.2015.01.004,Co1 Cr1 Fe1 Nb0.206 Ni1,FCC+Laves (C14),M,AC,175.0,8.2,,T,25.0,403.0,807.0,9.0,,,,,,,all YS recorded as +1 MPa,,,,,46,Effects of Nb additions on the microstructure and mechanical property of CoCrFeNi high-entropy alloys,2015,10.1016/j.intermet.2015.01.004,http://dx.doi.org/10.1016/j.intermet.2015.01.004,10.1016/j.intermet.2015.01.004,other,CAST,FCC+Sec.,8.2,
19,6,10.1016/j.intermet.2015.01.004,Co1 Cr1 Fe1 Nb0.309 Ni1,FCC+Laves (C14),M,AC,175.0,8.2,,T,25.0,479.0,879.0,4.0,,,,,,,all YS recorded as +1 MPa,,,,,46,Effects of Nb additions on the microstructure and mechanical property of CoCrFeNi high-entropy alloys,2015,10.1016/j.intermet.2015.01.004,http://dx.doi.org/10.1016/j.intermet.2015.01.004,10.1016/j.intermet.2015.01.004,other,CAST,FCC+Sec.,8.2,
20,6,10.1016/j.intermet.2015.01.004,Co1 Cr1 Fe1 Nb0.412 Ni1,FCC+Laves (C14),M,AC,175.0,8.2,,T,25.0,638.0,1004.0,1.0,,,,,,,all YS recorded as +1 MPa,,,,,46,Effects of Nb additions on the microstructure and mechanical property of CoCrFeNi high-entropy alloys,2015,10.1016/j.intermet.2015.01.004,http://dx.doi.org/10.1016/j.intermet.2015.01.004,10.1016/j.intermet.2015.01.004,other,CAST,FCC+Sec.,8.2,
21,6,10.1016/j.intermet.2015.01.004,Co1 Cr1 Fe1 Ni1,FCC,S,AC,175.0,8.2,,T,25.0,148.0,413.0,48.0,,225.0,,,,,all YS recorded as +1 MPa,,,,,46,Effects of Nb additions on the microstructure and mechanical property of CoCrFeNi high-entropy alloys,2015,10.1016/j.intermet.2015.01.004,http://dx.doi.org/10.1016/j.intermet.2015.01.004,10.1016/j.intermet.2015.01.004,FCC,CAST,FCC,8.2,226
22,7,10.1016/j.jallcom.2009.08.090,Al0.25 Co1 Cr1 Fe1 Ni1,FCC,S,A,,7.7,110.0,,25.0,,,,,216.0,,,,,,,,,,54,"Microstructure and mechanical property of as-cast, -homogenized, and -deformed AlxCoCrFeNi (0≤x≤2) high-entropy alloys",2009,10.1016/j.jallcom.2009.08.090,http://dx.doi.org/10.1016/j.jallcom.2009.08.090,10.1016/j.jallcom.2009.08.090,FCC,ANNEAL,FCC,7.7,213
23,7,10.1016/j.jallcom.2009.08.090,Al0.25 Co1 Cr1 Fe1 Ni1,FCC,S,A,,7.7,113.0,,25.0,,,,,216.0,,,,,,,,,,54,"Microstructure and mechanical property of as-cast, -homogenized, and -deformed AlxCoCrFeNi (0≤x≤2) high-entropy alloys",2009,10.1016/j.jallcom.2009.08.090,http://dx.doi.org/10.1016/j.jallcom.2009.08.090,10.1016/j.jallcom.2009.08.090,FCC,ANNEAL,FCC,7.7,213
24,7,10.1016/j.jallcom.2009.08.090,Al0.375 Co1 Cr1 Fe1 Ni1,FCC,S,A,,7.5,131.0,,25.0,,,,,211.0,,,,,,,,,,54,"Microstructure and mechanical property of as-cast, -homogenized, and -deformed AlxCoCrFeNi (0≤x≤2) high-entropy alloys",2009,10.1016/j.jallcom.2009.08.090,http://dx.doi.org/10.1016/j.jallcom.2009.08.090,10.1016/j.jallcom.2009.08.090,FCC,ANNEAL,FCC,7.5,207
25,7,10.1016/j.jallcom.2009.08.090,Al0.375 Co1 Cr1 Fe1 Ni1,FCC,S,A,,7.5,196.0,,25.0,,,,,211.0,,,,,,,,,,54,"Microstructure and mechanical property of as-cast, -homogenized, and -deformed AlxCoCrFeNi (0≤x≤2) high-entropy alloys",2009,10.1016/j.jallcom.2009.08.090,http://dx.doi.org/10.1016/j.jallcom.2009.08.090,10.1016/j.jallcom.2009.08.090,FCC,ANNEAL,FCC,7.5,207
26,7,10.1016/j.jallcom.2009.08.090,Al0.5 Co1 Cr1 Fe1 Ni1,FCC+BCC,M,A,,7.3,159.0,,25.0,,,,,208.0,,,,,,,,,,54,"Microstructure and mechanical property of as-cast, -homogenized, and -deformed AlxCoCrFeNi (0≤x≤2) high-entropy alloys",2009,10.1016/j.jallcom.2009.08.090,http://dx.doi.org/10.1016/j.jallcom.2009.08.090,10.1016/j.jallcom.2009.08.090,other,ANNEAL,FCC+BCC,7.3,
27,7,10.1016/j.jallcom.2009.08.090,Al0.5 Co1 Cr1 Fe1 Ni1,FCC+BCC,M,A,,7.3,209.0,,25.0,,,,,208.0,,,,,,,,,,54,"Microstructure and mechanical property of as-cast, -homogenized, and -deformed AlxCoCrFeNi (0≤x≤2) high-entropy alloys",2009,10.1016/j.jallcom.2009.08.090,http://dx.doi.org/10.1016/j.jallcom.2009.08.090,10.1016/j.jallcom.2009.08.090,other,ANNEAL,FCC+BCC,7.3,
28,7,10.1016/j.jallcom.2009.08.090,Al0.75 Co1 Cr1 Fe1 Ni1,FCC+BCC,M,A,,7.0,388.0,,25.0,,,,,200.0,,,,,,,,,,54,"Microstructure and mechanical property of as-cast, -homogenized, and -deformed AlxCoCrFeNi (0≤x≤2) high-entropy alloys",2009,10.1016/j.jallcom.2009.08.090,http://dx.doi.org/10.1016/j.jallcom.2009.08.090,10.1016/j.jallcom.2009.08.090,other,ANNEAL,FCC+BCC,7.0,
29,7,10.1016/j.jallcom.2009.08.090,Al0.75 Co1 Cr1 Fe1 Ni1,FCC+BCC,M,A,,7.0,280.0,,25.0,,,,,200.0,,,,,,,,,,54,"Microstructure and mechanical property of as-cast, -homogenized, and -deformed AlxCoCrFeNi (0≤x≤2) high-entropy alloys",2009,10.1016/j.jallcom.2009.08.090,http://dx.doi.org/10.1016/j.jallcom.2009.08.090,10.1016/j.jallcom.2009.08.090,other,ANNEAL,FCC+BCC,7.0,
30,7,10.1016/j.jallcom.2009.08.090,Al0.875 Co1 Cr1 Fe1 Ni1,BCC,S,A,,6.9,538.0,,25.0,,,,,197.0,,,,,,,,,,54,"Microstructure and mechanical property of as-cast, -homogenized, and -deformed AlxCoCrFeNi (0≤x≤2) high-entropy alloys",2009,10.1016/j.jallcom.2009.08.090,http://dx.doi.org/10.1016/j.jallcom.2009.08.090,10.1016/j.jallcom.2009.08.090,BCC,ANNEAL,BCC,6.9,188
31,7,10.1016/j.jallcom.2009.08.090,Al0.875 Co1 Cr1 Fe1 Ni1,FCC+BCC,M,A,,6.9,361.0,,25.0,,,,,197.0,,,,,,,,,,54,"Microstructure and mechanical property of as-cast, -homogenized, and -deformed AlxCoCrFeNi (0≤x≤2) high-entropy alloys",2009,10.1016/j.jallcom.2009.08.090,http://dx.doi.org/10.1016/j.jallcom.2009.08.090,10.1016/j.jallcom.2009.08.090,other,ANNEAL,FCC+BCC,6.9,
32,7,10.1016/j.jallcom.2009.08.090,Al1 Co0.8 Cr0.8 Fe0.8 Ni0.8,BCC,S,A,,6.5,487.0,,25.0,,,,,188.0,,,,,,,,,,54,"Microstructure and mechanical property of as-cast, -homogenized, and -deformed AlxCoCrFeNi (0≤x≤2) high-entropy alloys",2009,10.1016/j.jallcom.2009.08.090,http://dx.doi.org/10.1016/j.jallcom.2009.08.090,10.1016/j.jallcom.2009.08.090,BCC,ANNEAL,BCC,6.5,177
33,7,10.1016/j.jallcom.2009.08.090,Al1 Co0.8 Cr0.8 Fe0.8 Ni0.8,BCC,S,A,,6.5,499.0,,25.0,,,,,188.0,,,,,,,,,,54,"Microstructure and mechanical property of as-cast, -homogenized, and -deformed AlxCoCrFeNi (0≤x≤2) high-entropy alloys",2009,10.1016/j.jallcom.2009.08.090,http://dx.doi.org/10.1016/j.jallcom.2009.08.090,10.1016/j.jallcom.2009.08.090,BCC,ANNEAL,BCC,6.5,177
34,7,10.1016/j.jallcom.2009.08.090,Al1 Co0.667 Cr0.667 Fe0.667 Ni0.667,BCC,S,A,,6.2,484.0,,25.0,,,,,183.0,,,,,,,,,,54,"Microstructure and mechanical property of as-cast, -homogenized, and -deformed AlxCoCrFeNi (0≤x≤2) high-entropy alloys",2009,10.1016/j.jallcom.2009.08.090,http://dx.doi.org/10.1016/j.jallcom.2009.08.090,10.1016/j.jallcom.2009.08.090,BCC,ANNEAL,BCC,6.2,171
35,7,10.1016/j.jallcom.2009.08.090,Al1 Co0.667 Cr0.667 Fe0.667 Ni0.667,BCC,S,A,,6.2,517.0,,25.0,,,,,183.0,,,,,,,,,,54,"Microstructure and mechanical property of as-cast, -homogenized, and -deformed AlxCoCrFeNi (0≤x≤2) high-entropy alloys",2009,10.1016/j.jallcom.2009.08.090,http://dx.doi.org/10.1016/j.jallcom.2009.08.090,10.1016/j.jallcom.2009.08.090,BCC,ANNEAL,BCC,6.2,171
36,7,10.1016/j.jallcom.2009.08.090,Al1 Co0.5 Cr0.5 Fe0.5 Ni0.5,BCC,S,A,,5.9,509.0,,25.0,,,,,173.0,,,,,,,,,,54,"Microstructure and mechanical property of as-cast, -homogenized, and -deformed AlxCoCrFeNi (0≤x≤2) high-entropy alloys",2009,10.1016/j.jallcom.2009.08.090,http://dx.doi.org/10.1016/j.jallcom.2009.08.090,10.1016/j.jallcom.2009.08.090,BCC,ANNEAL,BCC,5.9,160
37,7,10.1016/j.jallcom.2009.08.090,Al1 Co0.5 Cr0.5 Fe0.5 Ni0.5,BCC,S,A,,5.9,512.0,,25.0,,,,,173.0,,,,,,,,,,54,"Microstructure and mechanical property of as-cast, -homogenized, and -deformed AlxCoCrFeNi (0≤x≤2) high-entropy alloys",2009,10.1016/j.jallcom.2009.08.090,http://dx.doi.org/10.1016/j.jallcom.2009.08.090,10.1016/j.jallcom.2009.08.090,BCC,ANNEAL,BCC,5.9,160
38,7,10.1016/j.jallcom.2009.08.090,Al1 Co1 Cr1 Fe1 Ni1,BCC,S,A,,6.7,484.0,,25.0,,,,,194.0,,,,,,,,,,54,"Microstructure and mechanical property of as-cast, -homogenized, and -deformed AlxCoCrFeNi (0≤x≤2) high-entropy alloys",2009,10.1016/j.jallcom.2009.08.090,http://dx.doi.org/10.1016/j.jallcom.2009.08.090,10.1016/j.jallcom.2009.08.090,BCC,ANNEAL,BCC,6.7,184
39,7,10.1016/j.jallcom.2009.08.090,Al1 Co1 Cr1 Fe1 Ni1,FCC+BCC,M,A,,6.7,433.0,,25.0,,,,,194.0,,,,,,,,,,54,"Microstructure and mechanical property of as-cast, -homogenized, and -deformed AlxCoCrFeNi (0≤x≤2) high-entropy alloys",2009,10.1016/j.jallcom.2009.08.090,http://dx.doi.org/10.1016/j.jallcom.2009.08.090,10.1016/j.jallcom.2009.08.090,other,ANNEAL,FCC+BCC,6.7,
40,7,10.1016/j.jallcom.2009.08.090,Co1 Cr1 Fe1 Ni1,FCC,S,A,,8.2,116.0,,25.0,,,,,225.0,,,,,,,,,,54,"Microstructure and mechanical property of as-cast, -homogenized, and -deformed AlxCoCrFeNi (0≤x≤2) high-entropy alloys",2009,10.1016/j.jallcom.2009.08.090,http://dx.doi.org/10.1016/j.jallcom.2009.08.090,10.1016/j.jallcom.2009.08.090,FCC,ANNEAL,FCC,8.2,226
41,7,10.1016/j.jallcom.2009.08.090,Co1 Cr1 Fe1 Ni1,FCC,S,A,,8.2,113.0,,25.0,,,,,225.0,,,,,,,,,,54,"Microstructure and mechanical property of as-cast, -homogenized, and -deformed AlxCoCrFeNi (0≤x≤2) high-entropy alloys",2009,10.1016/j.jallcom.2009.08.090,http://dx.doi.org/10.1016/j.jallcom.2009.08.090,10.1016/j.jallcom.2009.08.090,FCC,ANNEAL,FCC,8.2,226
42,8,10.1007/s11837-013-0753-6,Al0.5 Co1 Cr1 Fe1 Mo0.5 Ni1,FCC+Sigma,M,AC,,7.7,425.0,,25.0,,,,,,,,,,,,,,,63,Effect of Aluminum Content on Microstructure and Mechanical Properties of Al x CoCrFeMo0.5Ni High-Entropy Alloys,2013,10.1007/s11837-013-0753-6,http://dx.doi.org/10.1007/s11837-013-0753-6,10.1007/s11837-013-0753-6,other,CAST,FCC+Sec.,7.7,
43,8,10.1007/s11837-013-0753-6,Al1 Co0.667 Cr0.667 Fe0.667 Mo0.333 Ni0.667,B2+Sigma,M,AC,,6.6,655.0,,25.0,,,,,,,,,,,,,,,63,Effect of Aluminum Content on Microstructure and Mechanical Properties of Al x CoCrFeMo0.5Ni High-Entropy Alloys,2013,10.1007/s11837-013-0753-6,http://dx.doi.org/10.1007/s11837-013-0753-6,10.1007/s11837-013-0753-6,other,CAST,B2+Sec.,6.6,
[...]
905,new_ref_2,10.1088/0256-307X/35/3/036102,Al1 Cr1 Fe1 Mo0.5 Ni1 Ti0.4,BCC+B2,M,AC,,,731.9,C,25.0,2185.1,3673.4,,14.8,,,,,,,,,,,264,Microstructures and Mechanical Properties of AlCrFeNiMo 0.5 Ti  x  High Entropy Alloys,2018,10.1088/0256-307X/35/3/036102,http://dx.doi.org/10.1088/0256-307x/35/3/036102,10.1088/0256-307X/35/3/036102,other,CAST,BCC+B2,6.5,
906,new_ref_2,10.1088/0256-307X/35/3/036102,Al1 Cr1 Fe1 Mo0.5 Ni1 Ti0.5,BCC+B2,M,AC,,,751.7,C,25.0,2228.7,3166.2,,10.4,,,,,,,,,,,264,Microstructures and Mechanical Properties of AlCrFeNiMo 0.5 Ti  x  High Entropy Alloys,2018,10.1088/0256-307X/35/3/036102,http://dx.doi.org/10.1088/0256-307x/35/3/036102,10.1088/0256-307X/35/3/036102,other,CAST,BCC+B2,6.5,
907,new_ref_2,10.1088/0256-307X/35/3/036102,Al1 Cr1 Fe1 Mo0.5 Ni1 Ti0.6,BCC+B2,M,AC,,,756.1,C,25.0,1314.5,1314.5,,,,,,,,,,,,,264,Microstructures and Mechanical Properties of AlCrFeNiMo 0.5 Ti  x  High Entropy Alloys,2018,10.1088/0256-307X/35/3/036102,http://dx.doi.org/10.1088/0256-307x/35/3/036102,10.1088/0256-307X/35/3/036102,other,CAST,BCC+B2,6.4,
908,new_ref_2,10.1088/0256-307X/35/3/036102,Al1 Cr1 Fe1 Mo0.5 Ni1 Ti0.75,BCC+B2,M,AC,,,766.2,C,25.0,618.8,618.8,,,,,,,,,,,,,264,Microstructures and Mechanical Properties of AlCrFeNiMo 0.5 Ti  x  High Entropy Alloys,2018,10.1088/0256-307X/35/3/036102,http://dx.doi.org/10.1088/0256-307x/35/3/036102,10.1088/0256-307X/35/3/036102,other,CAST,BCC+B2,6.4,
909,new_ref_4,10.1016/j.matdes.2018.06.003,Al1 Cr1 Mo1 Nb1,Laves (C14)+A15,M,A,,,,,,,,,,,,,,,,,,,,265,"Phase equilibria, mechanical properties and design of quaternary refractory high entropy alloys",2018,10.1016/j.matdes.2018.06.003,http://dx.doi.org/10.1016/j.matdes.2018.06.003,10.1016/j.matdes.2018.06.003,other,ANNEAL,Other,7.2,
910,new_ref_4,10.1016/j.matdes.2018.06.003,Al1 Cr1 Mo1 Nb1,Laves (C14)+A15,M,AC,,,,,,,,,,,,,,,,,,,,265,"Phase equilibria, mechanical properties and design of quaternary refractory high entropy alloys",2018,10.1016/j.matdes.2018.06.003,http://dx.doi.org/10.1016/j.matdes.2018.06.003,10.1016/j.matdes.2018.06.003,other,CAST,Other,7.2,
911,new_ref_4,10.1016/j.matdes.2018.06.003,Al1 Hf1 Nb1 Ti1,B2,S,A,,,,,,,,,,,,,,,,,,,,265,"Phase equilibria, mechanical properties and design of quaternary refractory high entropy alloys",2018,10.1016/j.matdes.2018.06.003,http://dx.doi.org/10.1016/j.matdes.2018.06.003,10.1016/j.matdes.2018.06.003,other,ANNEAL,B2,7.7,
912,new_ref_4,10.1016/j.matdes.2018.06.003,Al1 Hf1 Nb1 Ti1,B2,S,AC,,,,,,,,,,,,,,,,,,,,265,"Phase equilibria, mechanical properties and design of quaternary refractory high entropy alloys",2018,10.1016/j.matdes.2018.06.003,http://dx.doi.org/10.1016/j.matdes.2018.06.003,10.1016/j.matdes.2018.06.003,other,CAST,B2,7.7,
913,new_ref_4,10.1016/j.matdes.2018.06.003,Al1 Hf1 Ta1 Ti1,B2,S,A,,,,,,,,,,,,,,,,,,,,265,"Phase equilibria, mechanical properties and design of quaternary refractory high entropy alloys",2018,10.1016/j.matdes.2018.06.003,http://dx.doi.org/10.1016/j.matdes.2018.06.003,10.1016/j.matdes.2018.06.003,other,ANNEAL,B2,9.7,
914,new_ref_4,10.1016/j.matdes.2018.06.003,Al1 Hf1 Ta1 Ti1,B2,S,AC,,,,,,,,,,,,,,,,,,,,265,"Phase equilibria, mechanical properties and design of quaternary refractory high entropy alloys",2018,10.1016/j.matdes.2018.06.003,http://dx.doi.org/10.1016/j.matdes.2018.06.003,10.1016/j.matdes.2018.06.003,other,CAST,B2,9.7,
915,new_ref_4,10.1016/j.matdes.2018.06.003,Al1 Mo1 Nb1 Ti1,BCC+A15,M,A,,,,,,,,,,,,,,,,,,,,265,"Phase equilibria, mechanical properties and design of quaternary refractory high entropy alloys",2018,10.1016/j.matdes.2018.06.003,http://dx.doi.org/10.1016/j.matdes.2018.06.003,10.1016/j.matdes.2018.06.003,other,ANNEAL,BCC+Sec.,6.5,
916,new_ref_4,10.1016/j.matdes.2018.06.003,Al1 Mo1 Nb1 Ti1,BCC,S,AC,,,509.0,,,,,,,,,,,,,,,,,265,"Phase equilibria, mechanical properties and design of quaternary refractory high entropy alloys",2018,10.1016/j.matdes.2018.06.003,http://dx.doi.org/10.1016/j.matdes.2018.06.003,10.1016/j.matdes.2018.06.003,BCC,CAST,BCC,6.5,151
917,new_ref_4,10.1016/j.matdes.2018.06.003,Al1 Nb1 Ta1 Ti1,BCC+A15,M,A,,,,,,,,,,,,,,,,,,,,265,"Phase equilibria, mechanical properties and design of quaternary refractory high entropy alloys",2018,10.1016/j.matdes.2018.06.003,http://dx.doi.org/10.1016/j.matdes.2018.06.003,10.1016/j.matdes.2018.06.003,other,ANNEAL,BCC+Sec.,8.2,
918,new_ref_4,10.1016/j.matdes.2018.06.003,Al1 Nb1 Ta1 Ti1,BCC,S,AC,,,458.0,,,,,,,,,,,,,,,,,265,"Phase equilibria, mechanical properties and design of quaternary refractory high entropy alloys",2018,10.1016/j.matdes.2018.06.003,http://dx.doi.org/10.1016/j.matdes.2018.06.003,10.1016/j.matdes.2018.06.003,BCC,CAST,BCC,8.2,120
919,new_ref_4,10.1016/j.matdes.2018.06.003,Cr1 Mo1 Ta1 Ti1,BCC,S,A,,,555.0,,,,,,,,,,,,,,,,,265,"Phase equilibria, mechanical properties and design of quaternary refractory high entropy alloys",2018,10.1016/j.matdes.2018.06.003,http://dx.doi.org/10.1016/j.matdes.2018.06.003,10.1016/j.matdes.2018.06.003,BCC,ANNEAL,BCC,9.9,219
920,new_ref_4,10.1016/j.matdes.2018.06.003,Cr1 Mo1 Ta1 Ti1,BCC,S,AC,,,539.0,,,,,,,,,,,,,,,,,265,"Phase equilibria, mechanical properties and design of quaternary refractory high entropy alloys",2018,10.1016/j.matdes.2018.06.003,http://dx.doi.org/10.1016/j.matdes.2018.06.003,10.1016/j.matdes.2018.06.003,BCC,CAST,BCC,9.9,219
921,new_ref_4,10.1016/j.matdes.2018.06.003,Cr1 Nb1 Ta1 Ti1,BCC+Laves (C15),M,A,,,,,,,,,,,,,,,,,,,,265,"Phase equilibria, mechanical properties and design of quaternary refractory high entropy alloys",2018,10.1016/j.matdes.2018.06.003,http://dx.doi.org/10.1016/j.matdes.2018.06.003,10.1016/j.matdes.2018.06.003,other,ANNEAL,BCC+Sec.,9.4,
922,new_ref_4,10.1016/j.matdes.2018.06.003,Cr1 Nb1 Ta1 Ti1,BCC,S,AC,,,495.0,,,,,,,,,,,,,,,,,265,"Phase equilibria, mechanical properties and design of quaternary refractory high entropy alloys",2018,10.1016/j.matdes.2018.06.003,http://dx.doi.org/10.1016/j.matdes.2018.06.003,10.1016/j.matdes.2018.06.003,BCC,CAST,BCC,9.4,162
923,new_ref_4,10.1016/j.matdes.2018.06.003,Cr1 Nb1 Ti1 W1,BCC+Laves (C15),M,A,,,630.0,,,,,,,,,,,,,,,,,265,"Phase equilibria, mechanical properties and design of quaternary refractory high entropy alloys",2018,10.1016/j.matdes.2018.06.003,http://dx.doi.org/10.1016/j.matdes.2018.06.003,10.1016/j.matdes.2018.06.003,other,ANNEAL,BCC+Sec.,9.9,
924,new_ref_4,10.1016/j.matdes.2018.06.003,Cr1 Nb1 Ti1 W1,BCC,S,AC,,,630.0,,,,,,,,,,,,,,,,,265,"Phase equilibria, mechanical properties and design of quaternary refractory high entropy alloys",2018,10.1016/j.matdes.2018.06.003,http://dx.doi.org/10.1016/j.matdes.2018.06.003,10.1016/j.matdes.2018.06.003,BCC,CAST,BCC,9.9,217
925,new_ref_4,10.1016/j.matdes.2018.06.003,Hf1 Nb1 Ta1 Ti1,BCC,S,A,,,280.0,,,,,,,,,,,,,,,,,265,"Phase equilibria, mechanical properties and design of quaternary refractory high entropy alloys",2018,10.1016/j.matdes.2018.06.003,http://dx.doi.org/10.1016/j.matdes.2018.06.003,10.1016/j.matdes.2018.06.003,BCC,ANNEAL,BCC,10.9,119
926,new_ref_4,10.1016/j.matdes.2018.06.003,Hf1 Nb1 Ta1 Ti1,BCC,S,AC,,,270.0,,,,,,,,,,,,,,,,,265,"Phase equilibria, mechanical properties and design of quaternary refractory high entropy alloys",2018,10.1016/j.matdes.2018.06.003,http://dx.doi.org/10.1016/j.matdes.2018.06.003,10.1016/j.matdes.2018.06.003,BCC,CAST,BCC,10.9,119
927,new_ref_4,10.1016/j.matdes.2018.06.003,Mo1 Nb1 Ta1 Ti1 W1,BCC,S,A,,,482.0,,,,,,,,,,,,,,,,,265,"Phase equilibria, mechanical properties and design of quaternary refractory high entropy alloys",2018,10.1016/j.matdes.2018.06.003,http://dx.doi.org/10.1016/j.matdes.2018.06.003,10.1016/j.matdes.2018.06.003,BCC,ANNEAL,BCC,11.8,222
928,new_ref_4,10.1016/j.matdes.2018.06.003,Mo1 Nb1 Ta1 Ti1 W1,BCC,S,AC,,,446.0,,,,,,,,,,,,,,,,,265,"Phase equilibria, mechanical properties and design of quaternary refractory high entropy alloys",2018,10.1016/j.matdes.2018.06.003,http://dx.doi.org/10.1016/j.matdes.2018.06.003,10.1016/j.matdes.2018.06.003,BCC,CAST,BCC,11.8,222
929,new_ref_4,10.1016/j.matdes.2018.06.003,Mo1 Nb1 Ta1 Ti1,BCC,S,A,,,407.0,,,,,,,,,,,,,,,,,265,"Phase equilibria, mechanical properties and design of quaternary refractory high entropy alloys",2018,10.1016/j.matdes.2018.06.003,http://dx.doi.org/10.1016/j.matdes.2018.06.003,10.1016/j.matdes.2018.06.003,BCC,ANNEAL,BCC,10.0,179
930,new_ref_4,10.1016/j.matdes.2018.06.003,Mo1 Nb1 Ta1 Ti1,BCC,S,AC,,,431.0,,,,,,,,,,,,,,,,,265,"Phase equilibria, mechanical properties and design of quaternary refractory high entropy alloys",2018,10.1016/j.matdes.2018.06.003,http://dx.doi.org/10.1016/j.matdes.2018.06.003,10.1016/j.matdes.2018.06.003,BCC,CAST,BCC,10.0,179