File: test_functions/ML_outlier_id/outliers/Property Calculated Young modulus.csv
,FORMULA,PROPERTY: Calculated Young modulus (GPa),Predicted Property Calculated Young modulus,Predicted Property Calculated Young modulus loss,REFERENCE: doi
1068,Mo1 Nb1 Re0.5 W1,298.0,277.7,17.2,10.1016/j.jallcom.2018.11.111
1279,Co0.25 Cr0.25 Fe1 Mn1,212.0,215.7,14.8,10.1016/j.msea.2019.138039
1282,Co0.25 Cr0.25 Fe1 Mn1,212.0,215.7,14.8,10.1016/j.msea.2019.138039
1281,Co0.25 Cr0.25 Fe1 Mn1,212.0,215.7,14.8,10.1016/j.msea.2019.138039
1284,Co0.25 Cr0.25 Fe1 Mn1,212.0,215.7,14.8,10.1016/j.msea.2019.138039
1280,Co0.25 Cr0.25 Fe1 Mn1,212.0,215.7,14.8,10.1016/j.msea.2019.138039
1283,Co0.25 Cr0.25 Fe1 Mn1,212.0,215.7,14.8,10.1016/j.msea.2019.138039
903,Al1 Cr1 Mo1 Ti1,189.0,176.9,11.0,10.1016/j.actamat.2019.06.032
929,Al1 Cr1 Mo1 Ti1,189.0,176.9,11.0,10.1016/j.actamat.2019.06.032
432,Al1 Cr1 Mo1 Ti1,189.0,176.9,11.0,10.1007/s11661-017-4386-1
431,Al1 Cr1 Mo1 Ti1,189.0,176.9,11.0,10.1007/s11661-017-4386-1
955,Al1 Cr1 Mo1 Ti1,189.0,176.9,11.0,10.1016/j.actamat.2019.06.032
435,Al1 Cr1 Mo1 Ti1,189.0,176.9,11.0,10.1007/s11661-017-4386-1
434,Al1 Cr1 Mo1 Ti1,189.0,176.9,11.0,10.1007/s11661-017-4386-1
433,Al1 Cr1 Mo1 Ti1,189.0,176.9,11.0,10.1007/s11661-017-4386-1
351,Mo1 Nb1 Ta1 W1,250.0,248.8,10.1,10.1016/j.intermet.2011.01.004
242,Al1 Cu1 Ni1 Ti1,122.0,119.7,10.1,10.1016/j.apsusc.2015.07.207
347,Mo1 Nb1 Ta1 W1,250.0,248.8,10.1,10.1016/j.intermet.2011.01.004
349,Mo1 Nb1 Ta1 W1,250.0,248.8,10.1,10.1016/j.intermet.2011.01.004
348,Mo1 Nb1 Ta1 W1,250.0,248.8,10.1,10.1016/j.intermet.2011.01.004
352,Mo1 Nb1 Ta1 W1,250.0,248.8,10.1,10.1016/j.intermet.2011.01.004
965,Mo1 Nb1 Ta1 W1,250.0,248.8,10.1,10.1016/j.actamat.2019.06.032
353,Mo1 Nb1 Ta1 W1,250.0,248.8,10.1,10.1016/j.intermet.2011.01.004
350,Mo1 Nb1 Ta1 W1,250.0,248.8,10.1,10.1016/j.intermet.2011.01.004
574,Mo1 Nb1 Ta1 W1,250.0,248.8,10.1,10.1016/j.msea.2017.12.004
913,Mo1 Nb1 Ta1 W1,250.0,248.8,10.1,10.1016/j.actamat.2019.06.032
939,Mo1 Nb1 Ta1 W1,250.0,248.8,10.1,10.1016/j.actamat.2019.06.032
1293,Mo1 Nb1 Ta1 W1,250.0,248.8,10.1,10.1007/s10853-019-03567-9
590,Nb1 Ta1 Ti1 V1,134.0,140.8,10.0,10.1016/j.msea.2016.07.102
282,Nb1 Ta1 Ti1 V1,134.0,140.8,10.0,10.1016/j.proeng.2012.03.043
774,Nb1 Ta1 Ti1 V1,134.0,140.8,10.0,10.1016/j.jallcom.2018.10.230
772,Nb1 Ta1 Ti1 V1,134.0,140.8,10.0,10.1016/j.jallcom.2018.10.230
773,Nb1 Ta1 Ti1 V1,134.0,140.8,10.0,10.1016/j.jallcom.2018.10.230
592,Nb1 Ta1 V1 W1,206.0,212.9,9.6,10.1016/j.msea.2016.07.102
1452,Nb1 Ta1 Ti1,136.0,139.1,8.8,10.3390/e21020114
1199,Nb1 Ta1 Ti1,136.0,139.1,8.8,10.1016/j.actamat.2019.06.006
1198,Nb1 Ta1 Ti1,136.0,139.1,8.8,10.1016/j.actamat.2019.06.006
1195,Nb1 Ta1 Ti1,136.0,139.1,8.8,10.1016/j.actamat.2019.06.006
1197,Nb1 Ta1 Ti1,136.0,139.1,8.8,10.1016/j.actamat.2019.06.006
1192,Nb1 Ta1 Ti1,136.0,139.1,8.8,10.1016/j.actamat.2019.06.006
1193,Nb1 Ta1 Ti1,136.0,139.1,8.8,10.1016/j.actamat.2019.06.006
1194,Nb1 Ta1 Ti1,136.0,139.1,8.8,10.1016/j.actamat.2019.06.006
1196,Nb1 Ta1 Ti1,136.0,139.1,8.8,10.1016/j.actamat.2019.06.006
986,Co1 Fe1 Ni1,207.0,207.5,8.5,10.1016/j.intermet.2019.106477
985,Co1 Fe1 Ni1,207.0,207.5,8.5,10.1016/j.intermet.2019.106477
5,Co1 Fe1 Ni1,207.0,207.5,8.5,10.1016/j.jmmm.2014.07.023
13,Co1 Fe1 Ni1,207.0,207.5,8.5,10.1016/j.actamat.2014.08.026
984,Co1 Fe1 Ni1,207.0,207.5,8.5,10.1016/j.intermet.2019.106477
987,Co1 Fe1 Ni1,207.0,207.5,8.5,10.1016/j.intermet.2019.106477
993,Co1 Fe1 Ni1,207.0,207.5,8.5,10.1016/j.actamat.2019.04.017
4,Co1 Fe1 Ni1,207.0,207.5,8.5,10.1016/j.jmmm.2014.07.023
581,Mo1 Nb1 Ta1 Ti1 W1,222.0,217.3,8.0,10.1016/j.intermet.2017.01.007
937,Mo1 Nb1 Ta1 Ti1 W1,222.0,217.3,8.0,10.1016/j.actamat.2019.06.032
911,Mo1 Nb1 Ta1 Ti1 W1,222.0,217.3,8.0,10.1016/j.actamat.2019.06.032
573,Mo1 Nb1 Ta1 Ti1 W1,222.0,217.3,8.0,10.1016/j.msea.2017.12.004
582,Mo1 Nb1 Ta1 Ti1 W1,222.0,217.3,8.0,10.1016/j.intermet.2017.01.007
585,Mo1 Nb1 Ta1 Ti1 W1,222.0,217.3,8.0,10.1016/j.intermet.2017.01.007
584,Mo1 Nb1 Ta1 Ti1 W1,222.0,217.3,8.0,10.1016/j.intermet.2017.01.007
583,Mo1 Nb1 Ta1 Ti1 W1,222.0,217.3,8.0,10.1016/j.intermet.2017.01.007
963,Mo1 Nb1 Ta1 Ti1 W1,222.0,217.3,8.0,10.1016/j.actamat.2019.06.032
241,Al1 Cu1 Fe1 Ni1 Ti1,137.0,141.1,7.8,10.1016/j.apsusc.2015.07.207
1002,Co1 Mn1 Ni1,202.0,202.6,7.6,10.1016/j.actamat.2019.04.017
1003,Co1 Mn1 Ni1,202.0,202.6,7.6,10.1016/j.actamat.2019.04.017
1004,Co1 Mn1 Ni1,202.0,202.6,7.6,10.1016/j.actamat.2019.04.017
14,Co1 Mn1 Ni1,202.0,202.6,7.6,10.1016/j.actamat.2014.08.026
1001,Co1 Mn1 Ni1,202.0,202.6,7.6,10.1016/j.actamat.2019.04.017
439,Al1 Mo1 Nb1 Ti1,151.0,148.1,7.5,10.1007/s11661-017-4386-1
904,Al1 Mo1 Nb1 Ti1,151.0,148.1,7.5,10.1016/j.actamat.2019.06.032
438,Al1 Mo1 Nb1 Ti1,151.0,148.1,7.5,10.1007/s11661-017-4386-1
437,Al1 Mo1 Nb1 Ti1,151.0,148.1,7.5,10.1007/s11661-017-4386-1
436,Al1 Mo1 Nb1 Ti1,151.0,148.1,7.5,10.1007/s11661-017-4386-1
956,Al1 Mo1 Nb1 Ti1,151.0,148.1,7.5,10.1016/j.actamat.2019.06.032
930,Al1 Mo1 Nb1 Ti1,151.0,148.1,7.5,10.1016/j.actamat.2019.06.032
240,Al1 Cu0.889 Fe0.667 Ni0.889 Ti1,131.0,131.4,7.4,10.1016/j.apsusc.2015.07.207
239,Al1 Cu0.889 Fe0.667 Ni0.889 Ti1,131.0,131.4,7.4,10.1016/j.apsusc.2015.07.207
934,Hf1 Mo1 Ta1 Ti1 Zr1,143.0,135.0,7.2,10.1016/j.actamat.2019.06.032
908,Hf1 Mo1 Ta1 Ti1 Zr1,143.0,135.0,7.2,10.1016/j.actamat.2019.06.032
319,Hf1 Mo1 Ta1 Ti1 Zr1,143.0,135.0,7.2,10.1016/j.intermet.2015.03.013
320,Hf1 Mo1 Ta1 Ti1 Zr1,143.0,135.0,7.2,10.1016/j.intermet.2015.03.013
321,Hf1 Mo1 Ta1 Ti1 Zr1,143.0,135.0,7.2,10.1016/j.intermet.2015.03.013
322,Hf1 Mo1 Ta1 Ti1 Zr1,143.0,135.0,7.2,10.1016/j.intermet.2015.03.013
960,Hf1 Mo1 Ta1 Ti1 Zr1,143.0,135.0,7.2,10.1016/j.actamat.2019.06.032
1480,Hf1 Mo1 Ta1 Ti1 Zr1,143.0,135.0,7.2,10.3390/e21010015
1490,Hf1 Mo1 Ta1 Ti1 Zr1,143.0,135.0,7.2,10.3390/e21010015
1495,Hf1 Mo1 Ta1 Ti1 Zr1,143.0,135.0,7.2,10.3390/e21010015
1485,Hf1 Mo1 Ta1 Ti1 Zr1,143.0,135.0,7.2,10.3390/e21010015
684,Co1 Cr0.429 Fe0.571 Mo0.286 Ni0.571,234.0,228.4,7.1,10.1016/j.scriptamat.2017.05.019
678,Co1 Cr0.429 Fe0.571 Mo0.286 Ni0.571,234.0,228.4,7.1,10.1016/j.scriptamat.2017.05.019
394,Cu1 Mn1 Ni1 Zn0.333,167.0,164.0,7.1,10.1016/j.jallcom.2015.07.285
1218,Nb1 Ta1 Ti1 W1,198.0,198.4,6.9,10.1016/j.actamat.2019.06.006
1212,Nb1 Ta1 Ti1 W1,198.0,198.4,6.9,10.1016/j.actamat.2019.06.006
1219,Nb1 Ta1 Ti1 W1,198.0,198.4,6.9,10.1016/j.actamat.2019.06.006
1217,Nb1 Ta1 Ti1 W1,198.0,198.4,6.9,10.1016/j.actamat.2019.06.006
1216,Nb1 Ta1 Ti1 W1,198.0,198.4,6.9,10.1016/j.actamat.2019.06.006
1215,Nb1 Ta1 Ti1 W1,198.0,198.4,6.9,10.1016/j.actamat.2019.06.006
1214,Nb1 Ta1 Ti1 W1,198.0,198.4,6.9,10.1016/j.actamat.2019.06.006
1213,Nb1 Ta1 Ti1 W1,198.0,198.4,6.9,10.1016/j.actamat.2019.06.006
591,Nb1 Ta1 Ti1 V1 W1,187.0,193.5,6.8,10.1016/j.msea.2016.07.102
410,Al1 Co0.5 Cr0.5 Cu0.5 Fe0.5 Ni0.5,156.0,161.2,6.7,10.1007/s11661-005-0218-9
407,Al1 Co0.5 Cr0.5 Cu0.5 Fe0.5 Ni0.5,156.0,161.2,6.7,10.1007/s11661-005-0218-9
408,Al1 Co0.5 Cr0.5 Cu0.5 Fe0.5 Ni0.5,156.0,161.2,6.7,10.1007/s11661-005-0218-9
409,Al1 Co0.5 Cr0.5 Cu0.5 Fe0.5 Ni0.5,156.0,161.2,6.7,10.1007/s11661-005-0218-9
412,Al1 Co0.5 Cr0.5 Cu0.5 Fe0.5 Ni0.5,156.0,161.2,6.7,10.1007/s11661-005-0218-9
413,Al1 Co0.5 Cr0.5 Cu0.5 Fe0.5 Ni0.5,156.0,161.2,6.7,10.1007/s11661-005-0218-9
414,Al1 Co0.5 Cr0.5 Cu0.5 Fe0.5 Ni0.5,156.0,161.2,6.7,10.1007/s11661-005-0218-9
411,Al1 Co0.5 Cr0.5 Cu0.5 Fe0.5 Ni0.5,156.0,161.2,6.7,10.1007/s11661-005-0218-9
559,Al1 Mo1 Ta1 Ti1 V1,165.0,163.0,6.6,10.4028/www.scientific.net/MSF.898.638
572,Mo1 Nb1 Ta1 Ti0.75 W1,228.0,225.5,6.5,10.1016/j.msea.2017.12.004
345,Mo1 Nb1 Ta1 V1 W1,229.0,231.6,6.4,10.1016/j.intermet.2011.01.004
589,Mo1 Nb1 Ta1 V1 W1,229.0,231.6,6.4,10.1016/j.msea.2017.12.021
346,Mo1 Nb1 Ta1 V1 W1,229.0,231.6,6.4,10.1016/j.intermet.2011.01.004
938,Mo1 Nb1 Ta1 V1 W1,229.0,231.6,6.4,10.1016/j.actamat.2019.06.032
964,Mo1 Nb1 Ta1 V1 W1,229.0,231.6,6.4,10.1016/j.actamat.2019.06.032
343,Mo1 Nb1 Ta1 V1 W1,229.0,231.6,6.4,10.1016/j.intermet.2011.01.004
344,Mo1 Nb1 Ta1 V1 W1,229.0,231.6,6.4,10.1016/j.intermet.2011.01.004
341,Mo1 Nb1 Ta1 V1 W1,229.0,231.6,6.4,10.1016/j.intermet.2011.01.004
342,Mo1 Nb1 Ta1 V1 W1,229.0,231.6,6.4,10.1016/j.intermet.2011.01.004
340,Mo1 Nb1 Ta1 V1 W1,229.0,231.6,6.4,10.1016/j.intermet.2011.01.004
912,Mo1 Nb1 Ta1 V1 W1,229.0,231.6,6.4,10.1016/j.actamat.2019.06.032
461,Co1 Cr1 Mo1 Nb1 Ti0.4,212.0,208.3,6.3,10.1007/s11665-017-2799-z
994,Co1 Cr0.053 Ni1,207.0,204.9,6.3,10.1016/j.actamat.2019.04.017
1016,Co0.25 Cr1 Ni1,238.0,231.2,6.3,10.1016/j.actamat.2019.04.017
1015,Co0.25 Cr1 Ni1,238.0,231.2,6.3,10.1016/j.actamat.2019.04.017
1014,Co0.25 Cr1 Ni1,238.0,231.2,6.3,10.1016/j.actamat.2019.04.017
565,Hf1 Nb1 Ta1 Zr1,105.0,110.6,6.3,10.1016/j.actamat.2016.01.018
1017,Co0.25 Cr1 Ni1,238.0,231.2,6.3,10.1016/j.actamat.2019.04.017
395,Cu1 Mn1 Ni1 Zn0.25,169.0,166.3,6.1,10.1016/j.jallcom.2015.07.285
1498,Hf1 Mo1 Nb1 Ta1 Ti1,155.0,150.7,6.0,10.3390/e21010015
1500,Hf1 Mo1 Nb1 Ta1 Ti1,155.0,150.7,6.0,10.3390/e21010015
1493,Hf1 Mo1 Nb1 Ta1 Ti1,155.0,150.7,6.0,10.3390/e21010015
1488,Hf1 Mo1 Nb1 Ta1 Ti1,155.0,150.7,6.0,10.3390/e21010015
597,Al0.25 Cr0.5 Nb0.5 Ti1 V0.25,134.0,131.8,6.0,10.1016/j.matlet.2016.11.030
1483,Hf1 Mo1 Nb1 Ta1 Ti1,155.0,150.7,6.0,10.3390/e21010015
339,Mo1 Nb1 Ta1 V1,186.0,191.2,6.0,10.3390/e18050189
576,Mo1 Nb1 Ta1 Ti1 V1 W1,209.0,209.0,5.9,10.1016/j.intermet.2017.01.007
577,Mo1 Nb1 Ta1 Ti1 V1 W1,209.0,209.0,5.9,10.1016/j.intermet.2017.01.007
578,Mo1 Nb1 Ta1 Ti1 V1 W1,209.0,209.0,5.9,10.1016/j.intermet.2017.01.007
579,Mo1 Nb1 Ta1 Ti1 V1 W1,209.0,209.0,5.9,10.1016/j.intermet.2017.01.007
910,Mo1 Nb1 Ta1 Ti1 V1 W1,209.0,209.0,5.9,10.1016/j.actamat.2019.06.032
962,Mo1 Nb1 Ta1 Ti1 V1 W1,209.0,209.0,5.9,10.1016/j.actamat.2019.06.032
580,Mo1 Nb1 Ta1 Ti1 V1 W1,209.0,209.0,5.9,10.1016/j.intermet.2017.01.007
280,Al0.5 Nb1 Ta1 Ti1 V1,127.0,130.2,5.9,10.1016/j.proeng.2012.03.043
936,Mo1 Nb1 Ta1 Ti1 V1 W1,209.0,209.0,5.9,10.1016/j.actamat.2019.06.032
1226,Cr1 Mo1 Nb1 Ti1,196.0,192.7,5.8,10.1016/j.actamat.2019.06.006
1224,Cr1 Mo1 Nb1 Ti1,196.0,192.7,5.8,10.1016/j.actamat.2019.06.006
1228,Cr1 Mo1 Nb1 Ti1,196.0,192.7,5.8,10.1016/j.actamat.2019.06.006
1225,Cr1 Mo1 Nb1 Ti1,196.0,192.7,5.8,10.1016/j.actamat.2019.06.006
377,Mo0.333 Nb0.333 Ti0.333 V1 Zr0.333,138.0,140.9,5.8,10.1007/s11837-012-0366-5
1227,Cr1 Mo1 Nb1 Ti1,196.0,192.7,5.8,10.1016/j.actamat.2019.06.006
570,Mo1 Nb1 Ta1 Ti0.25 W1,242.0,240.0,5.7,10.1016/j.msea.2017.12.004
1008,Co1 Cr0.25 Ni1,213.0,212.1,5.7,10.1016/j.actamat.2019.04.017
1005,Co1 Cr0.25 Ni1,213.0,212.1,5.7,10.1016/j.actamat.2019.04.017
1006,Co1 Cr0.25 Ni1,213.0,212.1,5.7,10.1016/j.actamat.2019.04.017
1007,Co1 Cr0.25 Ni1,213.0,212.1,5.7,10.1016/j.actamat.2019.04.017
3,Al1 Co1 Fe1 Ni1,162.0,167.4,5.6,10.1016/j.jmmm.2014.07.023
1446,Co1 Cr1 Cu1 Ni1 Zn1,181.0,176.2,5.6,10.3390/e21020122
1447,Co1 Cr1 Cu1 Ni1 Zn1,181.0,176.2,5.6,10.3390/e21020122
1448,Co1 Cr1 Cu1 Ni1 Zn1,181.0,176.2,5.6,10.3390/e21020122
1449,Co1 Cr1 Cu1 Ni1 Zn1,181.0,176.2,5.6,10.3390/e21020122
105,Al1 Co1 Cr1 Fe1 Ni1 Si0.6,162.0,166.1,5.6,10.1016/j.msea.2010.07.049
483,Hf0.26 Nb1 Ta1 Ti0.578 Zr0.416,122.0,125.4,5.5,10.1080/14786435.2015.1028506
482,Hf0.26 Nb1 Ta1 Ti0.578 Zr0.416,122.0,125.4,5.5,10.1080/14786435.2015.1028506
479,Hf0.26 Nb1 Ta1 Ti0.578 Zr0.416,122.0,125.4,5.5,10.1080/14786435.2015.1028506
481,Hf0.26 Nb1 Ta1 Ti0.578 Zr0.416,122.0,125.4,5.5,10.1080/14786435.2015.1028506
480,Hf0.26 Nb1 Ta1 Ti0.578 Zr0.416,122.0,125.4,5.5,10.1080/14786435.2015.1028506
814,Co1 Cr0.588 Fe0.176 Mo0.176 Ni1,231.0,227.1,5.4,10.1016/j.ijplas.2018.10.005
812,Co1 Cr0.588 Fe0.176 Mo0.176 Ni1,231.0,227.1,5.4,10.1016/j.ijplas.2018.10.005
811,Co1 Cr0.588 Fe0.176 Mo0.176 Ni1,231.0,227.1,5.4,10.1016/j.ijplas.2018.10.005
810,Co1 Cr0.588 Fe0.176 Mo0.176 Ni1,231.0,227.1,5.4,10.1016/j.ijplas.2018.10.005
809,Co1 Cr0.588 Fe0.176 Mo0.176 Ni1,231.0,227.1,5.4,10.1016/j.ijplas.2018.10.005
808,Co1 Cr0.588 Fe0.176 Mo0.176 Ni1,231.0,227.1,5.4,10.1016/j.ijplas.2018.10.005
813,Co1 Cr0.588 Fe0.176 Mo0.176 Ni1,231.0,227.1,5.4,10.1016/j.ijplas.2018.10.005
302,Nb0.5 Ti0.5 V1 Zr0.5,105.0,110.3,5.3,10.1016/j.msea.2012.12.018
575,Mo1 Nb1 Ta1 Ti1 V1,171.0,174.1,5.3,10.1016/j.jallcom.2016.11.188
299,Nb0.5 Ti0.5 V1 Zr0.5,105.0,110.3,5.3,10.1016/j.msea.2012.12.018
300,Nb0.5 Ti0.5 V1 Zr0.5,105.0,110.3,5.3,10.1016/j.msea.2012.12.018
301,Nb0.5 Ti0.5 V1 Zr0.5,105.0,110.3,5.3,10.1016/j.msea.2012.12.018
276,Al0.75 Mo1 Nb1 Ti1 V1,151.0,152.8,5.3,10.3390/e16020870
610,Al1 Nb1 Ti1 V1,104.0,104.9,5.2,10.1016/j.jallcom.2015.08.224
286,Al1 Nb1 Ti1 V1,104.0,104.9,5.2,10.1016/j.matlet.2014.11.162
284,Al1 Nb1 Ti1 V1,104.0,104.9,5.2,10.1016/j.matlet.2014.11.162
613,Al1 Nb1 Ti1 V1,104.0,104.9,5.2,10.1016/j.jallcom.2015.08.224
1374,Al0.333 Co0.333 Cu0.333 Fe0.333 Ni1,167.0,170.9,5.2,10.1016/j.jmst.2018.12.014
612,Al1 Nb1 Ti1 V1,104.0,104.9,5.2,10.1016/j.jallcom.2015.08.224
285,Al1 Nb1 Ti1 V1,104.0,104.9,5.2,10.1016/j.matlet.2014.11.162
611,Al1 Nb1 Ti1 V1,104.0,104.9,5.2,10.1016/j.jallcom.2015.08.224
283,Al1 Nb1 Ti1 V1,104.0,104.9,5.2,10.1016/j.matlet.2014.11.162
841,Co0.5 Cr0.5 Fe1 Ni1,219.0,221.0,5.2,10.1080/21663831.2018.1553803
1379,Co1 Cr0.2 Fe1 Ni1 Si0.2,195.0,198.5,5.1,10.1016/j.jmmm.2019.01.096
6,Co1 Fe1 Ni1 Si0.25,186.0,190.6,5.1,10.1016/j.jmmm.2014.07.023
571,Mo1 Nb1 Ta1 Ti0.5 W1,234.0,232.0,5.1,10.1016/j.msea.2017.12.004
1380,Co1 Cr0.2 Fe1 Ni1 Si0.2,195.0,198.5,5.1,10.1016/j.jmmm.2019.01.096
1381,Co1 Cr0.2 Fe1 Ni1 Si0.2,195.0,198.5,5.1,10.1016/j.jmmm.2019.01.096
1130,Co1 Cr1 Fe1 Ni1 W0.2,238.0,235.9,5.0,10.1016/j.intermet.2019.106550
279,Al0.25 Nb1 Ta1 Ti1 V1,130.0,132.3,5.0,10.1016/j.proeng.2012.03.043
1346,Al0.286 Cr0.343 Fe1 Mn0.657 Ni0.571,195.0,194.8,4.9,10.1016/j.msea.2019.05.056
914,Mo1 Nb1 Ti1,177.0,172.3,4.9,10.1016/j.actamat.2019.06.032
1348,Al0.286 Cr0.343 Fe1 Mn0.657 Ni0.571,195.0,194.8,4.9,10.1016/j.msea.2019.05.056
940,Mo1 Nb1 Ti1,177.0,172.3,4.9,10.1016/j.actamat.2019.06.032
422,Al1 Cr1 Mo1 Nb1 Ti1,170.0,169.3,4.9,10.1016/j.jallcom.2015.11.050
430,Al1 Cr1 Mo1 Nb1 Ti1,170.0,169.3,4.9,10.1007/s11661-017-4386-1
421,Al1 Cr1 Mo1 Nb1 Ti1,170.0,169.3,4.9,10.1016/j.jallcom.2015.11.050
966,Mo1 Nb1 Ti1,177.0,172.3,4.9,10.1016/j.actamat.2019.06.032
429,Al1 Cr1 Mo1 Nb1 Ti1,170.0,169.3,4.9,10.1007/s11661-017-4386-1
423,Al1 Cr1 Mo1 Nb1 Ti1,170.0,169.3,4.9,10.1016/j.jallcom.2015.11.050
424,Al1 Cr1 Mo1 Nb1 Ti1,170.0,169.3,4.9,10.1016/j.jallcom.2015.11.050
428,Al1 Cr1 Mo1 Nb1 Ti1,170.0,169.3,4.9,10.1007/s11661-017-4386-1
427,Al1 Cr1 Mo1 Nb1 Ti1,170.0,169.3,4.9,10.1007/s11661-017-4386-1
426,Al1 Cr1 Mo1 Nb1 Ti1,170.0,169.3,4.9,10.1016/j.jallcom.2015.11.050
425,Al1 Cr1 Mo1 Nb1 Ti1,170.0,169.3,4.9,10.1016/j.jallcom.2015.11.050
1499,Hf1 Mo1 Nb1 Ta1 Zr1,141.0,141.5,4.7,10.3390/e21010015
1383,Al1 Cu0.077 Mg0.077 Ni0.077 Si0.231 Zn0.077,72.0,73.8,4.7,10.1038/s41598-019-43329-w
558,Al0.6 Mo1 Ta1 Ti1 V1,173.0,170.3,4.7,10.4028/www.scientific.net/MSF.898.638
1497,Hf1 Mo1 Nb1 Ta1 Zr1,141.0,141.5,4.7,10.3390/e21010015
1492,Hf1 Mo1 Nb1 Ta1 Zr1,141.0,141.5,4.7,10.3390/e21010015
1487,Hf1 Mo1 Nb1 Ta1 Zr1,141.0,141.5,4.7,10.3390/e21010015
1482,Hf1 Mo1 Nb1 Ta1 Zr1,141.0,141.5,4.7,10.3390/e21010015
323,Hf1 Mo1 Nb1 Ti1 Zr1,128.0,125.7,4.6,10.1016/j.matdes.2015.05.019
324,Hf1 Mo1 Nb1 Ti1 Zr1,128.0,125.7,4.6,10.1016/j.matdes.2015.05.019
1496,Hf1 Mo1 Nb1 Ti1 Zr1,128.0,125.7,4.6,10.3390/e21010015
1491,Hf1 Mo1 Nb1 Ti1 Zr1,128.0,125.7,4.6,10.3390/e21010015
933,Hf1 Mo1 Nb1 Ti1 Zr1,128.0,125.7,4.6,10.1016/j.actamat.2019.06.032
992,Hf1 Mo1 Nb1 Ti1 Zr1,128.0,125.7,4.6,10.1016/j.intermet.2015.10.011
327,Hf1 Mo1 Nb1 Ti1 Zr1,128.0,125.7,4.6,10.1016/j.matdes.2015.05.019
1481,Hf1 Mo1 Nb1 Ti1 Zr1,128.0,125.7,4.6,10.3390/e21010015
1486,Hf1 Mo1 Nb1 Ti1 Zr1,128.0,125.7,4.6,10.3390/e21010015
326,Hf1 Mo1 Nb1 Ti1 Zr1,128.0,125.7,4.6,10.1016/j.matdes.2015.05.019
325,Hf1 Mo1 Nb1 Ti1 Zr1,128.0,125.7,4.6,10.1016/j.matdes.2015.05.019
959,Hf1 Mo1 Nb1 Ti1 Zr1,128.0,125.7,4.6,10.1016/j.actamat.2019.06.032
598,Al1 Cr0.5 Nb1 Ti1 V1,119.0,117.6,4.6,10.1016/j.jallcom.2015.08.224
599,Al1 Cr0.5 Nb1 Ti1 V1,119.0,117.6,4.6,10.1016/j.jallcom.2015.08.224
600,Al1 Cr0.5 Nb1 Ti1 V1,119.0,117.6,4.6,10.1016/j.jallcom.2015.08.224
601,Al1 Cr0.5 Nb1 Ti1 V1,119.0,117.6,4.6,10.1016/j.jallcom.2015.08.224
907,Hf1 Mo1 Nb1 Ti1 Zr1,128.0,125.7,4.6,10.1016/j.actamat.2019.06.032
1441,Co1 Cr1 Cu1 Fe1 Ni1,206.0,204.6,4.6,10.1007/s11665-018-3837-1
557,Al0.2 Mo1 Ta1 Ti1 V1,183.0,179.8,4.5,10.4028/www.scientific.net/MSF.898.638
307,Hf0.5 Mo0.5 Nb1 Ti1 Zr1,115.0,111.7,4.5,10.1016/j.intermet.2015.09.011
104,Al1 Co1 Cr1 Fe1 Ni1 Si0.4,169.0,172.1,4.5,10.1016/j.msea.2010.07.049
312,Hf1 Mo0.75 Nb1 Ta1 Ti1 Zr1,130.0,130.1,4.4,10.1016/j.matlet.2016.03.133
275,Al0.5 Mo1 Nb1 Ti1 V1,156.0,157.7,4.4,10.3390/e16020870
51,Co1 Cr1 Fe1 Ni1 Ti1,195.0,198.6,4.4,10.1016/j.msea.2008.12.053
12,Co1 Fe1 Mn1 Ni1,204.0,205.6,4.4,10.1016/j.actamat.2014.08.026
560,Mo1 Ta1 Ti1 V1,189.0,186.0,4.3,10.4028/www.scientific.net/MSF.898.638
1042,Co0.5 Fe0.5 Mo0.1 Ni1 V0.25,202.0,201.9,4.1,10.1016/j.scriptamat.2019.02.038
999,Fe1 Mn1 Ni1,203.0,204.0,4.1,10.1016/j.actamat.2019.04.017
1037,Co0.5 Fe0.5 Mo0.1 Ni1 V0.25,202.0,201.9,4.1,10.1016/j.scriptamat.2019.02.038
1038,Co0.5 Fe0.5 Mo0.1 Ni1 V0.25,202.0,201.9,4.1,10.1016/j.scriptamat.2019.02.038
998,Fe1 Mn1 Ni1,203.0,204.0,4.1,10.1016/j.actamat.2019.04.017
997,Fe1 Mn1 Ni1,203.0,204.0,4.1,10.1016/j.actamat.2019.04.017
1041,Co0.5 Fe0.5 Mo0.1 Ni1 V0.25,202.0,201.9,4.1,10.1016/j.scriptamat.2019.02.038
1040,Co0.5 Fe0.5 Mo0.1 Ni1 V0.25,202.0,201.9,4.1,10.1016/j.scriptamat.2019.02.038
[...]
916,Nb1 Ti1 Zr1,94.0,95.3,2.1,10.1016/j.actamat.2019.06.032
942,Nb1 Ti1 Zr1,94.0,95.3,2.1,10.1016/j.actamat.2019.06.032
968,Nb1 Ti1 Zr1,94.0,95.3,2.1,10.1016/j.actamat.2019.06.032
1125,Nb1 Ti1 Zr1,94.0,95.3,2.1,10.1007/s12598-019-01310-6
1127,Nb1 Ti1 Zr1,94.0,95.3,2.1,10.1007/s12598-019-01310-6
1121,Nb1 Ti1 Zr1,94.0,95.3,2.1,10.1007/s12598-019-01310-6
697,Al0.167 Co1 Cr1 Fe1 Ni1 Ti0.083,214.0,213.4,2.1,10.1016/j.actamat.2015.08.076
1454,Nb1 Ti1 Zr1,94.0,95.3,2.1,10.3390/e21020114
1412,Cr1 Fe1 Ni1 Ti0.5,208.0,208.5,2.1,10.1557/jmr.2019.40
967,Nb1 Ta0.3 Ti1 Zr1,101.0,102.0,2.0,10.1016/j.actamat.2019.06.032
220,Co1 Cu1 Fe1 Mn1 Ni1,189.0,188.6,2.0,10.1016/j.matdes.2012.08.019
221,Co1 Cu1 Fe1 Mn1 Ni1 Sn0.03,187.0,187.3,2.0,10.1016/j.matdes.2012.08.019
331,Hf0.333 Nb0.333 Ta0.333 Ti1 Zr0.667,103.0,101.5,2.0,10.1063/1.49667
76,Al1 Co1 Cr1 Fe1 Mo0.1 Ni1,188.0,187.0,2.0,10.1016/j.msea.2010.07.028
915,Nb1 Ta0.3 Ti1 Zr1,101.0,102.0,2.0,10.1016/j.actamat.2019.06.032
941,Nb1 Ta0.3 Ti1 Zr1,101.0,102.0,2.0,10.1016/j.actamat.2019.06.032
261,Al0.333 Nb0.667 Ta0.533 Ti1 V0.133 Zr0.667,109.0,108.0,1.9,10.1007/s11837-014-1066-0
271,Al0.75 Hf1 Nb1 Ta1 Ti1 Zr1,103.0,103.0,1.9,10.1016/j.jallcom.2014.11.064
648,Al0.304 Co1 Cr1 Fe1 Ni1,210.0,209.9,1.9,10.1016/j.matdes.2017.02.072
645,Al0.304 Co1 Cr1 Fe1 Ni1,210.0,209.9,1.9,10.1016/j.matdes.2017.02.072
1181,Co1 Cr1 Fe1 Ni1 Ti0.3,214.0,214.3,1.9,10.1016/j.msea.2019.138181
729,Al0.304 Co1 Cr1 Fe1 Ni1,210.0,209.9,1.9,10.1016/j.msea.2015.02.072
259,Al0.333 Nb0.667 Ta0.533 Ti1 V0.133 Zr0.667,109.0,108.0,1.9,10.1007/s11837-014-1066-0
838,Al0.3 Co1 Cr1 Fe1 Ni1,210.0,210.0,1.9,10.1016/j.actamat.2018.12.010
1045,Al0.3 Co1 Cr1 Fe1 Ni1,210.0,210.0,1.9,10.1088/2053-1591/ab0597
1044,Al0.3 Co1 Cr1 Fe1 Ni1,210.0,210.0,1.9,10.1088/2053-1591/ab0597
1043,Al0.3 Co1 Cr1 Fe1 Ni1,210.0,210.0,1.9,10.1088/2053-1591/ab0597
260,Al0.333 Nb0.667 Ta0.533 Ti1 V0.133 Zr0.667,109.0,108.0,1.9,10.1007/s11837-014-1066-0
1411,Cr1 Fe1 Ni1 Ti0.4,212.0,211.1,1.8,10.1557/jmr.2019.40
490,Hf0.5 Nb0.667 Ta0.333 Ti1 Zr0.833,100.0,100.4,1.8,10.1016/j.msea.2017.10.073
507,Hf0.5 Nb0.667 Ta0.333 Ti1 Zr0.833,100.0,100.4,1.8,10.1016/j.msea.2017.10.073
501,Hf0.5 Nb0.667 Ta0.333 Ti1 Zr0.833,100.0,100.4,1.8,10.1016/j.msea.2017.10.073
494,Hf0.5 Nb0.667 Ta0.333 Ti1 Zr0.833,100.0,100.4,1.8,10.1016/j.msea.2017.10.073
495,Hf0.5 Nb0.667 Ta0.333 Ti1 Zr0.833,100.0,100.4,1.8,10.1016/j.msea.2017.10.073
496,Hf0.5 Nb0.667 Ta0.333 Ti1 Zr0.833,100.0,100.4,1.8,10.1016/j.msea.2017.10.073
497,Hf0.5 Nb0.667 Ta0.333 Ti1 Zr0.833,100.0,100.4,1.8,10.1016/j.msea.2017.10.073
498,Hf0.5 Nb0.667 Ta0.333 Ti1 Zr0.833,100.0,100.4,1.8,10.1016/j.msea.2017.10.073
499,Hf0.5 Nb0.667 Ta0.333 Ti1 Zr0.833,100.0,100.4,1.8,10.1016/j.msea.2017.10.073
500,Hf0.5 Nb0.667 Ta0.333 Ti1 Zr0.833,100.0,100.4,1.8,10.1016/j.msea.2017.10.073
502,Hf0.5 Nb0.667 Ta0.333 Ti1 Zr0.833,100.0,100.4,1.8,10.1016/j.msea.2017.10.073
492,Hf0.5 Nb0.667 Ta0.333 Ti1 Zr0.833,100.0,100.4,1.8,10.1016/j.msea.2017.10.073
503,Hf0.5 Nb0.667 Ta0.333 Ti1 Zr0.833,100.0,100.4,1.8,10.1016/j.msea.2017.10.073
504,Hf0.5 Nb0.667 Ta0.333 Ti1 Zr0.833,100.0,100.4,1.8,10.1016/j.msea.2017.10.073
505,Hf0.5 Nb0.667 Ta0.333 Ti1 Zr0.833,100.0,100.4,1.8,10.1016/j.msea.2017.10.073
506,Hf0.5 Nb0.667 Ta0.333 Ti1 Zr0.833,100.0,100.4,1.8,10.1016/j.msea.2017.10.073
508,Hf0.5 Nb0.667 Ta0.333 Ti1 Zr0.833,100.0,100.4,1.8,10.1016/j.msea.2017.10.073
509,Hf0.5 Nb0.667 Ta0.333 Ti1 Zr0.833,100.0,100.4,1.8,10.1016/j.msea.2017.10.073
510,Hf0.5 Nb0.667 Ta0.333 Ti1 Zr0.833,100.0,100.4,1.8,10.1016/j.msea.2017.10.073
493,Hf0.5 Nb0.667 Ta0.333 Ti1 Zr0.833,100.0,100.4,1.8,10.1016/j.msea.2017.10.073
491,Hf0.5 Nb0.667 Ta0.333 Ti1 Zr0.833,100.0,100.4,1.8,10.1016/j.msea.2017.10.073
143,Co1 Cr1 Fe1 Mn1 Ni1 V0.5,210.0,210.6,1.7,10.1016/j.jallcom.2014.12.157
1240,Hf0.25 Nb0.125 Ti1 V0.5 Zr0.5,100.0,99.5,1.7,10.1007/s40195-019-00921-3
795,Co1 Cr1 Fe1 Mn1 Mo0.042 Ni1,221.0,219.7,1.7,10.1016/j.jmst.2018.10.009
369,Nb1 Ti1 V0.3 Zr1,96.0,97.2,1.7,10.1016/j.matdes.2015.06.072
142,Co1 Cr1 Fe1 Mn1 Ni1 V0.5,210.0,210.6,1.7,10.1016/j.jallcom.2014.12.157
253,Al0.214 Nb0.714 Ta0.714 Ti1 Zr0.929,110.0,109.5,1.7,10.1007/s11837-014-1066-0
254,Al0.214 Nb0.714 Ta0.714 Ti1 Zr0.929,110.0,109.5,1.7,10.1007/s11837-014-1066-0
255,Al0.214 Nb0.714 Ta0.714 Ti1 Zr0.929,110.0,109.5,1.7,10.1007/s11837-014-1066-0
1184,Co0.333 Cr0.667 Fe0.667 Ni1 Ti0.2,213.0,212.5,1.6,10.1016/j.msea.2019.138181
269,Al0.3 Hf1 Nb1 Ta1 Ti1 Zr1,105.0,106.0,1.5,10.1016/j.jallcom.2014.11.064
900,Co0.986 Cr0.952 Fe0.933 Mn0.914 Ni1,220.0,219.4,1.5,10.1016/j.msea.2019.01.112
896,Co0.986 Cr0.952 Fe0.933 Mn0.914 Ni1,220.0,219.4,1.5,10.1016/j.msea.2019.01.112
250,Al0.214 Nb0.714 Ta0.571 Ti1 V0.143 Zr0.929,107.0,107.2,1.4,10.1007/s11837-014-1066-0
375,Mo0.667 Nb0.667 Ti0.667 V1 Zr0.667,140.0,140.0,1.4,10.1007/s11837-012-0366-5
252,Al0.214 Nb0.714 Ta0.571 Ti1 V0.143 Zr0.929,107.0,107.2,1.4,10.1007/s11837-014-1066-0
251,Al0.214 Nb0.714 Ta0.571 Ti1 V0.143 Zr0.929,107.0,107.2,1.4,10.1007/s11837-014-1066-0
1030,Co1 Cr1 Fe1 Mn1 Ni1,220.0,219.8,1.2,10.1016/j.msea.2019.04.025
980,Co1 Cr1 Fe1 Mn1 Ni1,220.0,219.8,1.2,10.1016/j.intermet.2019.106486
771,Co1 Cr1 Fe1 Mn1 Ni1,220.0,219.8,1.2,10.1016/j.scriptamat.2018.11.042
1029,Co1 Cr1 Fe1 Mn1 Ni1,220.0,219.8,1.2,10.1016/j.msea.2019.04.025
1033,Co1 Cr1 Fe1 Mn1 Ni1,220.0,219.8,1.2,10.1016/j.msea.2019.04.025
1031,Co1 Cr1 Fe1 Mn1 Ni1,220.0,219.8,1.2,10.1016/j.msea.2019.04.025
1032,Co1 Cr1 Fe1 Mn1 Ni1,220.0,219.8,1.2,10.1016/j.msea.2019.04.025
1034,Co1 Cr1 Fe1 Mn1 Ni1,220.0,219.8,1.2,10.1016/j.msea.2019.04.025
1035,Co1 Cr1 Fe1 Mn1 Ni1,220.0,219.8,1.2,10.1016/j.msea.2019.04.025
1036,Co1 Cr1 Fe1 Mn1 Ni1,220.0,219.8,1.2,10.1016/j.msea.2019.04.025
815,Co1 Cr1 Fe1 Mn1 Ni1,220.0,219.8,1.2,10.1016/j.jallcom.2018.08.115
137,Co1 Cr1 Fe1 Mn1 Ni1,220.0,219.8,1.2,10.1016/j.actamat.2013.09.037
138,Co1 Cr1 Fe1 Mn1 Ni1,220.0,219.8,1.2,10.1016/j.jallcom.2014.12.157
139,Co1 Cr1 Fe1 Mn1 Ni1,220.0,219.8,1.2,10.1016/j.jallcom.2014.12.157
805,Co1 Cr1 Fe1 Mn1 Ni1,220.0,219.8,1.2,10.1016/j.msea.2019.01.050
769,Co1 Cr1 Fe1 Mn1 Ni1,220.0,219.8,1.2,10.1016/j.scriptamat.2018.11.042
775,Co1 Cr1 Fe1 Mn1 Ni1,220.0,219.8,1.2,10.1016/j.jmst.2018.09.068
776,Co1 Cr1 Fe1 Mn1 Ni1,220.0,219.8,1.2,10.1016/j.jmst.2018.09.068
794,Co1 Cr1 Fe1 Mn1 Ni1,220.0,219.8,1.2,10.1016/j.jmst.2018.10.009
770,Co1 Cr1 Fe1 Mn1 Ni1,220.0,219.8,1.2,10.1016/j.scriptamat.2018.11.042
757,Co1 Cr1 Fe1 Mn1 Ni1,220.0,219.8,1.2,10.1016/j.msea.2018.10.094
756,Co1 Cr1 Fe1 Mn1 Ni1,220.0,219.8,1.2,10.1016/j.msea.2018.10.094
1324,Co1 Cr1 Fe1 Mn1 Ni1,220.0,219.8,1.2,10.1007/s11661-019-05231-y
1285,Co1 Cr1 Fe1 Mn1 Ni1,220.0,219.8,1.2,10.1016/j.jallcom.2019.04.121
1314,Co1 Cr1 Fe1 Mn1 Ni1,220.0,219.8,1.2,10.1007/s11661-019-05231-y
1315,Co1 Cr1 Fe1 Mn1 Ni1,220.0,219.8,1.2,10.1007/s11661-019-05231-y
1316,Co1 Cr1 Fe1 Mn1 Ni1,220.0,219.8,1.2,10.1007/s11661-019-05231-y
1317,Co1 Cr1 Fe1 Mn1 Ni1,220.0,219.8,1.2,10.1007/s11661-019-05231-y
1318,Co1 Cr1 Fe1 Mn1 Ni1,220.0,219.8,1.2,10.1007/s11661-019-05231-y
1319,Co1 Cr1 Fe1 Mn1 Ni1,220.0,219.8,1.2,10.1007/s11661-019-05231-y
1320,Co1 Cr1 Fe1 Mn1 Ni1,220.0,219.8,1.2,10.1007/s11661-019-05231-y
1321,Co1 Cr1 Fe1 Mn1 Ni1,220.0,219.8,1.2,10.1007/s11661-019-05231-y
724,Co1 Cr1 Fe1 Mn1 Ni1,220.0,219.8,1.2,10.1134/S0031918X17060084
1323,Co1 Cr1 Fe1 Mn1 Ni1,220.0,219.8,1.2,10.1007/s11661-019-05231-y
1322,Co1 Cr1 Fe1 Mn1 Ni1,220.0,219.8,1.2,10.1007/s11661-019-05231-y
270,Al0.5 Hf1 Nb1 Ta1 Ti1 Zr1,104.0,104.7,1.2,10.1016/j.jallcom.2014.11.064
694,Co1 Cr1 Fe1 Mn1 Ni1,220.0,219.8,1.2,10.1080/02670836.2017.1342367
630,Co1 Cr1 Fe1 Mn1 Ni1,220.0,219.8,1.2,10.1016/j.actamat.2013.06.018
692,Co1 Cr1 Fe1 Mn1 Ni1,220.0,219.8,1.2,10.1080/02670836.2017.1342367
373,Mo1 Nb1 Ti1 V0.75 Zr1,141.0,141.2,1.1,10.1007/s11837-012-0366-5
374,Mo1 Nb1 Ti1 V1 Zr1,141.0,141.0,1.1,10.1007/s11837-012-0366-5
361,Mo1 Nb1 Ti1 V1 Zr1,141.0,141.0,1.1,10.1016/j.matdes.2015.06.072
1245,Hf0.25 Nb0.5 Ti1 V0.5 Zr0.5,101.0,100.8,1.0,10.1007/s40195-019-00921-3
371,Mo1 Nb1 Ti1 V0.25 Zr1,142.0,142.0,1.0,10.1007/s11837-012-0366-5
1246,Hf0.25 Nb0.5 Ti1 V0.5 Zr0.5,101.0,100.8,1.0,10.1007/s40195-019-00921-3
1247,Hf0.25 Nb0.5 Ti1 V0.5 Zr0.5,101.0,100.8,1.0,10.1007/s40195-019-00921-3
372,Mo1 Nb1 Ti1 V0.5 Zr1,142.0,141.8,0.9,10.1007/s11837-012-0366-5
362,Mo1 Nb1 Ti1 V0.3 Zr1,142.0,141.9,0.9,10.1016/j.matdes.2015.06.072
1241,Hf0.25 Nb0.25 Ti1 V0.5 Zr0.5,100.0,99.8,0.8,10.1007/s40195-019-00921-3
1242,Hf0.25 Nb0.25 Ti1 V0.5 Zr0.5,100.0,99.8,0.8,10.1007/s40195-019-00921-3
1243,Hf0.25 Nb0.25 Ti1 V0.5 Zr0.5,100.0,99.8,0.8,10.1007/s40195-019-00921-3
1244,Hf0.25 Nb0.375 Ti1 V0.5 Zr0.5,100.0,100.0,0.8,10.1007/s40195-019-00921-3